Data from 2 hrs_Absorbance_14-27-38-199.txt Node
Date: Thu Feb 02 14:27:38 EST 2023
User: UV-vis
Spectrometer: FLMS04918
Trigger mode: 0
Integration Time (sec): 1.850000E-3
Scans to average: 10
Electric dark correction enabled: true
Nonlinearity correction enabled: false
Boxcar width: 10
XAxis mode: Wavelengths
Number of Pixels in Spectrum: 2048
>>>>>Begin Spectral Data<<<<<
179.23	-0
179.611	-0.98955
179.992	-1.66262
180.373	-0
180.754	-0
181.134	-0
181.515	-0
181.896	-0
182.276	-0
182.657	-0
183.038	-0
183.418	-0
183.799	-0
184.179	-0.08536
184.56	0.06661
184.94	0.09216
185.32	0.11019
185.701	0.11826
186.081	0.12504
186.461	0.13365
186.842	0.13809
187.222	0.13596
187.602	0.14656
187.982	0.14502
188.362	0.15104
188.742	0.15003
189.122	0.1424
189.502	0.14276
189.882	0.14539
190.262	0.14359
190.642	0.1468
191.022	0.14792
191.402	0.14845
191.781	0.1475
192.161	0.14942
192.541	0.15393
192.92	0.15626
193.3	0.15945
193.68	0.16161
194.059	0.15997
194.439	0.16246
194.818	0.16091
195.198	0.16161
195.577	0.1603
195.957	0.16563
196.336	0.16792
196.715	0.16609
197.094	0.16668
197.474	0.16998
197.853	0.16856
198.232	0.16999
198.611	0.16894
198.99	0.1693
199.369	0.1716
199.748	0.17454
200.127	0.17509
200.506	0.17492
200.885	0.17524
201.264	0.1735
201.643	0.17119
202.022	0.17209
202.401	0.16874
202.779	0.16975
203.158	0.17035
203.537	0.17099
203.915	0.16842
204.294	0.1632
204.673	0.16671
205.051	0.16749
205.43	0.16579
205.808	0.16393
206.187	0.16376
206.565	0.16321
206.943	0.16577
207.322	0.16728
207.7	0.16659
208.078	0.16507
208.456	0.16522
208.835	0.16573
209.213	0.16749
209.591	0.16977
209.969	0.17032
210.347	0.16992
210.725	0.16936
211.103	0.16979
211.481	0.17097
211.859	0.17476
212.237	0.17484
212.614	0.17325
212.992	0.17512
213.37	0.17647
213.748	0.17944
214.125	0.17937
214.503	0.18264
214.881	0.17816
215.258	0.17787
215.636	0.18259
216.013	0.18323
216.391	0.18259
216.768	0.18417
217.145	0.18452
217.523	0.18374
217.9	0.18413
218.277	0.18692
218.655	0.19071
219.032	0.19004
219.409	0.18544
219.786	0.18252
220.163	0.18446
220.54	0.18625
220.917	0.18565
221.294	0.18498
221.671	0.18501
222.048	0.18427
222.425	0.18089
222.802	0.18259
223.179	0.18093
223.556	0.1778
223.932	0.17838
224.309	0.18054
224.686	0.17868
225.062	0.17829
225.439	0.18146
225.815	0.17991
226.192	0.17922
226.568	0.17859
226.945	0.18259
227.321	0.18411
227.698	0.18643
228.074	0.18558
228.45	0.18657
228.827	0.18782
229.203	0.19066
229.579	0.19324
229.955	0.19577
230.331	0.19932
230.707	0.20337
231.083	0.20907
231.46	0.20898
231.835	0.20923
232.211	0.20615
232.587	0.20793
232.963	0.20916
233.339	0.20733
233.715	0.21101
234.091	0.21421
234.466	0.21573
234.842	0.21383
235.218	0.21593
235.593	0.21406
235.969	0.21662
236.344	0.2165
236.72	0.21971
237.095	0.21726
237.471	0.2162
237.846	0.21716
238.222	0.21202
238.597	0.21365
238.972	0.2106
239.348	0.20921
239.723	0.21098
240.098	0.21144
240.473	0.21201
240.848	0.21302
241.223	0.2149
241.598	0.21653
241.973	0.2162
242.348	0.21536
242.723	0.2158
243.098	0.22109
243.473	0.21864
243.848	0.21733
244.223	0.2189
244.597	0.21631
244.972	0.21696
245.347	0.21902
245.721	0.22133
246.096	0.2293
246.47	0.23005
246.845	0.2317
247.219	0.2377
247.594	0.23911
247.968	0.24372
248.343	0.24459
248.717	0.24634
249.091	0.24367
249.466	0.24494
249.84	0.24779
250.214	0.2493
250.588	0.25092
250.962	0.2504
251.336	0.25653
251.71	0.25975
252.084	0.2631
252.458	0.26348
252.832	0.26679
253.206	0.26941
253.58	0.26877
253.954	0.27239
254.328	0.27008
254.702	0.27178
255.075	0.2682
255.449	0.26728
255.823	0.26883
256.196	0.27166
256.57	0.27239
256.943	0.27575
257.317	0.27488
257.69	0.27391
258.064	0.27568
258.437	0.27961
258.81	0.28024
259.184	0.28388
259.557	0.28644
259.93	0.28972
260.303	0.29541
260.677	0.29676
261.05	0.29858
261.423	0.29932
261.796	0.29619
262.169	0.29896
262.542	0.30013
262.915	0.30412
263.288	0.30459
263.661	0.30297
264.033	0.30238
264.406	0.30339
264.779	0.30654
265.152	0.31136
265.524	0.31163
265.897	0.3132
266.27	0.31265
266.642	0.31416
267.015	0.31676
267.387	0.31824
267.76	0.31629
268.132	0.31372
268.504	0.31613
268.877	0.31561
269.249	0.31915
269.621	0.32073
269.994	0.32099
270.366	0.32281
270.738	0.32672
271.11	0.33246
271.482	0.338
271.854	0.34155
272.226	0.34483
272.598	0.34687
272.97	0.34867
273.342	0.34983
273.714	0.35332
274.086	0.36036
274.458	0.36518
274.829	0.36637
275.201	0.37174
275.573	0.37753
275.944	0.38708
276.316	0.3913
276.688	0.39925
277.059	0.40711
277.431	0.41645
277.802	0.42838
278.173	0.44192
278.545	0.4628
278.916	0.49069
279.287	0.5298
279.659	0.57915
280.03	0.63241
280.401	0.68887
280.772	0.7387
281.143	0.78427
281.515	0.82229
281.886	0.85215
282.257	0.87625
282.628	0.89615
282.998	0.9098
283.369	0.91916
283.74	0.92588
284.111	0.93077
284.482	0.93347
284.853	0.93404
285.223	0.93329
285.594	0.93166
285.965	0.92961
286.335	0.92612
286.706	0.92181
287.076	0.91698
287.447	0.912
287.817	0.90641
288.188	0.90064
288.558	0.89446
288.928	0.88791
289.299	0.88066
289.669	0.87322
290.039	0.86538
290.409	0.85718
290.779	0.84906
291.149	0.84081
291.52	0.83233
291.89	0.82415
292.26	0.81611
292.629	0.80807
292.999	0.80048
293.369	0.79297
293.739	0.78557
294.109	0.77859
294.479	0.77184
294.848	0.76536
295.218	0.75899
295.588	0.75286
295.957	0.74678
296.327	0.74109
296.696	0.73533
297.066	0.72957
297.435	0.72381
297.805	0.71813
298.174	0.71265
298.544	0.70705
298.913	0.70148
299.282	0.69627
299.651	0.69099
300.021	0.68556
300.39	0.68043
300.759	0.67552
301.128	0.67091
301.497	0.66644
301.866	0.66224
302.235	0.65812
302.604	0.6539
302.973	0.64979
303.342	0.64574
303.71	0.6416
304.079	0.63728
304.448	0.63284
304.817	0.6283
305.185	0.62354
305.554	0.61851
305.923	0.61333
306.291	0.60809
306.66	0.60296
307.028	0.59809
307.397	0.59294
307.765	0.58821
308.133	0.5833
308.502	0.57848
308.87	0.57345
309.238	0.56872
309.606	0.56417
309.975	0.55972
310.343	0.55541
310.711	0.55131
311.079	0.54728
311.447	0.54328
311.815	0.53957
312.183	0.53611
312.551	0.53286
312.919	0.52988
313.286	0.52732
313.654	0.52503
314.022	0.52296
314.39	0.52115
314.757	0.51916
315.125	0.51737
315.492	0.51549
315.86	0.51352
316.228	0.51122
316.595	0.509
316.962	0.50636
317.33	0.50338
317.697	0.50029
318.065	0.49699
318.432	0.49334
318.799	0.4897
319.166	0.4858
319.534	0.4817
319.901	0.4778
320.268	0.47438
320.635	0.47121
321.002	0.46795
321.369	0.4647
321.736	0.46154
322.103	0.45817
322.47	0.45482
322.836	0.45158
323.203	0.44821
323.57	0.44498
323.937	0.44181
324.303	0.43879
324.67	0.43582
325.037	0.43289
325.403	0.43027
325.77	0.42766
326.136	0.42529
326.503	0.42289
326.869	0.42064
327.235	0.4187
327.602	0.41658
327.968	0.41418
328.334	0.41161
328.7	0.40922
329.067	0.40679
329.433	0.40433
329.799	0.4019
330.165	0.39958
330.531	0.39732
330.897	0.39527
331.263	0.39342
331.629	0.39166
331.995	0.38993
332.36	0.38851
332.726	0.38714
333.092	0.38569
333.458	0.38454
333.823	0.38322
334.189	0.382
334.554	0.38086
334.92	0.37947
335.286	0.37826
335.651	0.37713
336.016	0.37608
336.382	0.37483
336.747	0.37357
337.113	0.37238
337.478	0.37129
337.843	0.37017
338.208	0.36895
338.573	0.3677
338.939	0.36646
339.304	0.36527
339.669	0.36414
340.034	0.36285
340.399	0.36181
340.764	0.36058
341.129	0.35936
341.493	0.35823
341.858	0.35708
342.223	0.35597
342.588	0.35497
342.952	0.35381
343.317	0.35268
343.682	0.35144
344.046	0.35035
344.411	0.34925
344.775	0.34804
345.14	0.34684
345.504	0.34561
345.869	0.34448
346.233	0.34317
346.597	0.3417
346.962	0.3403
347.326	0.3388
347.69	0.33732
348.054	0.3356
348.418	0.33412
348.782	0.33233
349.146	0.33069
349.51	0.32909
349.874	0.32749
350.238	0.32585
350.602	0.32429
350.966	0.32261
351.33	0.32094
351.693	0.31926
352.057	0.31772
352.421	0.31622
352.784	0.31466
353.148	0.31302
353.512	0.31143
353.875	0.30999
354.239	0.30867
354.602	0.30727
354.966	0.30575
355.329	0.30429
355.692	0.30297
356.056	0.3016
356.419	0.30044
356.782	0.29933
357.145	0.29805
357.508	0.29686
357.871	0.29555
358.234	0.29432
358.597	0.29319
358.96	0.29212
359.323	0.29093
359.686	0.28968
360.049	0.28848
360.412	0.28727
360.775	0.28621
361.137	0.28498
361.5	0.28378
361.863	0.28256
362.225	0.28138
362.588	0.28026
362.951	0.27916
363.313	0.27795
363.675	0.27674
364.038	0.27546
364.4	0.27417
364.763	0.27301
365.125	0.27182
365.487	0.27088
365.849	0.26978
366.212	0.2686
366.574	0.26755
366.936	0.26663
367.298	0.26567
367.66	0.26466
368.022	0.2638
368.384	0.26281
368.746	0.26199
369.108	0.26103
369.469	0.26016
369.831	0.25916
370.193	0.25828
370.555	0.25737
370.916	0.25638
371.278	0.25543
371.64	0.25466
372.001	0.25377
372.363	0.25285
372.724	0.252
373.086	0.25116
373.447	0.25038
373.808	0.24976
374.17	0.2489
374.531	0.24806
374.892	0.24725
375.253	0.24641
375.615	0.2457
375.976	0.24512
376.337	0.24442
376.698	0.2437
377.059	0.24299
377.42	0.24237
377.781	0.24193
378.141	0.24147
378.502	0.24114
378.863	0.2408
379.224	0.24031
379.585	0.23996
379.945	0.23961
380.306	0.23927
380.666	0.23883
381.027	0.23849
381.388	0.23801
381.748	0.2377
382.108	0.23736
382.469	0.2371
382.829	0.23692
383.19	0.23654
383.55	0.23615
383.91	0.23577
384.27	0.23561
384.63	0.23536
384.991	0.23509
385.351	0.23461
385.711	0.23429
386.071	0.23391
386.431	0.23354
386.791	0.2333
387.15	0.23309
387.51	0.23285
387.87	0.23262
388.23	0.23248
388.589	0.2323
388.949	0.23198
389.309	0.23179
389.668	0.23164
390.028	0.2314
390.387	0.23123
390.747	0.23126
391.106	0.23121
391.466	0.23138
391.825	0.23152
392.184	0.2316
392.544	0.23181
392.903	0.23208
393.262	0.23212
393.621	0.2324
393.98	0.23273
394.339	0.23292
394.698	0.23301
395.057	0.23327
395.416	0.23345
395.775	0.23368
396.134	0.23404
396.493	0.23455
396.852	0.23505
397.211	0.23543
397.569	0.23594
397.928	0.23628
398.287	0.23669
398.645	0.23707
399.004	0.23738
399.362	0.23757
399.721	0.23799
400.079	0.23831
400.438	0.23869
400.796	0.23914
401.154	0.2394
401.512	0.2397
401.871	0.24014
402.229	0.24056
402.587	0.24098
402.945	0.2415
403.303	0.24196
403.661	0.24227
404.019	0.24264
404.377	0.24299
404.735	0.24334
405.093	0.24378
405.451	0.24432
405.808	0.24468
406.166	0.24499
406.524	0.24533
406.882	0.24578
407.239	0.24608
407.597	0.24651
407.954	0.24675
408.312	0.24705
408.669	0.24749
409.027	0.24788
409.384	0.24826
409.741	0.24866
410.099	0.24901
410.456	0.24941
410.813	0.24977
411.17	0.25028
411.527	0.25081
411.884	0.25143
412.242	0.25204
412.599	0.25245
412.956	0.253
413.312	0.25347
413.669	0.25419
414.026	0.25475
414.383	0.25526
414.74	0.25581
415.096	0.25631
415.453	0.25698
415.81	0.25783
416.166	0.25843
416.523	0.25902
416.879	0.25965
417.236	0.26043
417.592	0.26095
417.949	0.26165
418.305	0.26236
418.661	0.26306
419.018	0.26372
419.374	0.26421
419.73	0.2648
420.086	0.26552
420.442	0.26601
420.798	0.26653
421.154	0.26705
421.51	0.26757
421.866	0.26802
422.222	0.2685
422.578	0.26903
422.934	0.2695
423.29	0.26976
423.646	0.27033
424.001	0.27092
424.357	0.27144
424.713	0.27188
425.068	0.2728
425.424	0.27339
425.779	0.27405
426.135	0.27459
426.49	0.27495
426.845	0.27541
427.201	0.27614
427.556	0.27658
427.911	0.27718
428.266	0.2778
428.622	0.27838
428.977	0.27904
429.332	0.27976
429.687	0.28038
430.042	0.28105
430.397	0.28174
430.752	0.28244
431.107	0.283
431.461	0.28385
431.816	0.2847
432.171	0.28544
432.526	0.28631
432.88	0.2872
433.235	0.28795
433.59	0.28856
433.944	0.28937
434.299	0.28993
434.653	0.2905
435.008	0.29112
435.362	0.29183
435.716	0.29258
436.071	0.29304
436.425	0.29383
436.779	0.29465
437.133	0.29539
437.487	0.29604
437.841	0.29666
438.195	0.2976
438.549	0.29815
438.903	0.29894
439.257	0.29974
439.611	0.30059
439.965	0.30093
440.319	0.3015
440.673	0.30224
441.026	0.30272
441.38	0.30357
441.734	0.30445
442.087	0.30507
442.441	0.30606
442.794	0.3071
443.148	0.30768
443.501	0.30884
443.855	0.30951
444.208	0.31044
444.561	0.3112
444.915	0.31234
445.268	0.31351
445.621	0.31435
445.974	0.31553
446.327	0.31663
446.68	0.31746
447.033	0.3187
447.386	0.31994
447.739	0.32103
448.092	0.32203
448.445	0.32328
448.798	0.32401
449.15	0.32517
449.503	0.32613
449.856	0.32714
450.209	0.32803
450.561	0.3291
450.914	0.33005
451.266	0.33109
451.619	0.33199
451.971	0.33305
452.323	0.33395
452.676	0.33482
453.028	0.33596
453.38	0.33675
453.733	0.33752
454.085	0.33826
454.437	0.33917
454.789	0.33998
455.141	0.34088
455.493	0.34168
455.845	0.34263
456.197	0.34363
456.549	0.34464
456.901	0.34534
457.253	0.34602
457.604	0.34703
457.956	0.34814
458.308	0.34898
458.659	0.34994
459.011	0.35064
459.362	0.35159
459.714	0.3524
460.065	0.35334
460.417	0.35386
460.768	0.35481
461.12	0.35575
461.471	0.3567
461.822	0.35709
462.173	0.35817
462.525	0.3589
462.876	0.35985
463.227	0.36053
463.578	0.36141
463.929	0.36213
464.28	0.36312
464.631	0.36401
464.982	0.365
465.332	0.36553
465.683	0.36594
466.034	0.36659
466.385	0.36743
466.735	0.36791
467.086	0.36839
467.437	0.36912
467.787	0.37017
468.138	0.37091
468.488	0.37136
468.839	0.372
469.189	0.37298
469.539	0.37361
469.89	0.37419
470.24	0.37434
470.59	0.37486
470.94	0.37538
471.29	0.37567
471.64	0.37599
471.99	0.37651
472.34	0.37648
472.69	0.37705
473.04	0.37787
473.39	0.37829
473.74	0.37876
474.09	0.37925
474.439	0.38002
474.789	0.3803
475.139	0.3805
475.488	0.38113
475.838	0.38142
476.188	0.38182
476.537	0.38199
476.886	0.38208
477.236	0.38217
477.585	0.38236
477.935	0.38262
478.284	0.38269
478.633	0.38263
478.982	0.3827
479.331	0.38298
479.68	0.38323
480.03	0.38314
480.379	0.38317
480.728	0.38327
481.076	0.38314
481.425	0.38297
481.774	0.38271
482.123	0.38271
482.472	0.38232
482.821	0.38183
483.169	0.38159
483.518	0.38109
483.866	0.38051
484.215	0.38018
484.563	0.3801
484.912	0.37975
485.26	0.37929
485.609	0.3789
485.957	0.3785
486.305	0.37814
486.654	0.3773
487.002	0.37673
487.35	0.37615
487.698	0.3753
488.046	0.37448
488.394	0.3739
488.742	0.37328
489.09	0.37252
489.438	0.37167
489.786	0.37099
490.134	0.36995
490.482	0.36894
490.829	0.36809
491.177	0.36731
491.525	0.36622
491.872	0.36514
492.22	0.36423
492.567	0.36323
492.915	0.36215
493.262	0.36115
493.61	0.35999
493.957	0.35894
494.304	0.35777
494.652	0.35669
494.999	0.35534
495.346	0.3541
495.693	0.35269
496.04	0.3516
496.387	0.35023
496.734	0.34868
497.081	0.34726
497.428	0.346
497.775	0.34471
498.122	0.34354
498.469	0.3422
498.816	0.34094
499.162	0.33958
499.509	0.33811
499.856	0.33667
500.202	0.33525
500.549	0.33386
500.895	0.33239
501.242	0.3308
501.588	0.32923
501.935	0.32748
502.281	0.32613
502.627	0.32456
502.973	0.323
503.32	0.32116
503.666	0.31958
504.012	0.31796
504.358	0.31636
504.704	0.31456
505.05	0.31295
505.396	0.31107
505.742	0.30932
506.088	0.30764
506.433	0.30597
506.779	0.30418
507.125	0.30229
507.471	0.30042
507.816	0.29862
508.162	0.29678
508.507	0.29508
508.853	0.29324
509.198	0.29167
509.544	0.28989
509.889	0.28804
510.234	0.28615
510.58	0.28441
510.925	0.28254
511.27	0.28074
511.615	0.27885
511.96	0.27722
512.306	0.27548
512.651	0.27372
512.996	0.27193
513.341	0.27
513.685	0.26819
514.03	0.26635
514.375	0.26485
514.72	0.26304
515.065	0.26123
515.409	0.25937
515.754	0.25746
516.099	0.25562
516.443	0.25361
516.788	0.25161
517.132	0.24978
517.476	0.24818
517.821	0.24633
518.165	0.2447
518.51	0.24289
518.854	0.24113
519.198	0.23942
519.542	0.23764
519.886	0.23579
520.23	0.23404
520.574	0.23231
520.918	0.23051
521.262	0.2287
521.606	0.22667
521.95	0.22509
522.294	0.22322
522.638	0.22151
522.981	0.21994
523.325	0.21812
523.669	0.21647
524.012	0.21482
524.356	0.21319
524.699	0.21127
525.043	0.20954
525.386	0.20773
525.73	0.20609
526.073	0.2043
526.416	0.20251
526.76	0.20076
527.103	0.19915
527.446	0.19741
527.789	0.19556
528.132	0.19374
528.475	0.19202
528.818	0.19048
529.161	0.18884
529.504	0.18735
529.847	0.18569
530.19	0.18399
530.532	0.18259
530.875	0.18075
531.218	0.17912
531.56	0.17747
531.903	0.17588
532.246	0.17431
532.588	0.17276
532.93	0.1713
533.273	0.16974
533.615	0.16814
533.958	0.16652
534.3	0.165
534.642	0.16351
534.984	0.16204
535.326	0.16069
535.669	0.15912
536.011	0.15755
536.353	0.15577
536.695	0.15415
537.037	0.15265
537.378	0.151
537.72	0.14944
538.062	0.14813
538.404	0.14675
538.746	0.14527
539.087	0.14392
539.429	0.14243
539.77	0.14084
540.112	0.13923
540.454	0.13786
540.795	0.13641
541.136	0.13512
541.478	0.13355
541.819	0.13208
542.16	0.13074
542.502	0.12933
542.843	0.12813
543.184	0.12666
543.525	0.12544
543.866	0.12408
544.207	0.12261
544.548	0.12141
544.889	0.12008
545.23	0.11887
545.571	0.11744
545.911	0.1162
546.252	0.11494
546.593	0.11374
546.934	0.11265
547.274	0.11138
547.615	0.11013
547.955	0.109
548.296	0.10776
548.636	0.10672
548.977	0.10554
549.317	0.1043
549.657	0.10291
549.997	0.10159
550.338	0.1005
550.678	0.09934
551.018	0.09831
551.358	0.09724
551.698	0.09616
552.038	0.09503
552.378	0.09389
552.718	0.09282
553.058	0.09175
553.398	0.09056
553.737	0.08942
554.077	0.08848
554.417	0.08742
554.756	0.08637
555.096	0.08534
555.435	0.08422
555.775	0.08313
556.114	0.08225
556.454	0.08131
556.793	0.08037
557.133	0.07954
557.472	0.07863
557.811	0.07757
558.15	0.07643
558.489	0.07555
558.829	0.07446
559.168	0.07366
559.507	0.07265
559.846	0.07164
560.184	0.07064
560.523	0.06967
560.862	0.06878
561.201	0.06777
561.54	0.06697
561.878	0.06615
562.217	0.06518
562.556	0.06427
562.894	0.06354
563.233	0.06262
563.571	0.06194
563.91	0.06111
564.248	0.0603
564.586	0.05942
564.925	0.05872
565.263	0.05817
565.601	0.0574
565.939	0.05683
566.277	0.05591
566.616	0.05524
566.954	0.05459
567.292	0.05379
567.63	0.05324
567.967	0.05257
568.305	0.05181
568.643	0.051
568.981	0.05015
569.319	0.04952
569.656	0.0488
569.994	0.04806
570.331	0.04735
570.669	0.04657
571.006	0.04598
571.344	0.04536
571.681	0.04467
572.019	0.04387
572.356	0.04312
572.693	0.04252
573.03	0.04169
573.368	0.04113
573.705	0.04052
574.042	0.03988
574.379	0.0393
574.716	0.03853
575.053	0.03789
575.39	0.03726
575.727	0.03671
576.063	0.03616
576.4	0.03547
576.737	0.03484
577.074	0.03425
577.41	0.03361
577.747	0.03297
578.083	0.03233
578.42	0.03176
578.756	0.03127
579.093	0.03089
579.429	0.03023
579.766	0.02978
580.102	0.02929
580.438	0.02867
580.774	0.02814
581.11	0.02753
581.446	0.0271
581.782	0.02668
582.119	0.02612
582.454	0.02566
582.79	0.0251
583.126	0.02458
583.462	0.02416
583.798	0.02387
584.134	0.02331
584.469	0.02287
584.805	0.0225
585.141	0.02205
585.476	0.0215
585.812	0.02105
586.147	0.02059
586.482	0.02013
586.818	0.01965
587.153	0.01927
587.488	0.01901
587.824	0.01851
588.159	0.01815
588.494	0.01751
588.829	0.01713
589.164	0.01689
589.499	0.01653
589.834	0.01611
590.169	0.01585
590.504	0.01548
590.839	0.01503
591.174	0.01482
591.508	0.01458
591.843	0.01399
592.178	0.01356
592.512	0.01321
592.847	0.01279
593.181	0.01235
593.516	0.0121
593.85	0.01167
594.185	0.01135
594.519	0.0109
594.853	0.01048
595.187	0.01013
595.522	0.00996
595.856	0.00959
596.19	0.0091
596.524	0.00857
596.858	0.00832
597.192	0.00792
597.526	0.00759
597.86	0.00722
598.194	0.00673
598.527	0.0062
598.861	0.00593
599.195	0.00551
599.528	0.00512
