Data from 3 min_Absorbance_12-27-05-680.txt Node
Date: Thu Feb 02 12:27:05 EST 2023
User: UV-vis
Spectrometer: FLMS04918
Trigger mode: 0
Integration Time (sec): 1.850000E-3
Scans to average: 10
Electric dark correction enabled: true
Nonlinearity correction enabled: false
Boxcar width: 10
XAxis mode: Wavelengths
Number of Pixels in Spectrum: 2048
>>>>>Begin Spectral Data<<<<<
179.23	-0
179.611	-0.96622
179.992	-1.59479
180.373	-0
180.754	-0
181.134	-0
181.515	-0
181.896	-0
182.276	-0
182.657	-0
183.038	-0
183.418	-0
183.799	-0
184.179	0.42298
184.56	0.39639
184.94	0.29499
185.32	0.29614
185.701	0.26567
186.081	0.26827
186.461	0.28868
186.842	0.27869
187.222	0.27827
187.602	0.27807
187.982	0.26969
188.362	0.27352
188.742	0.27506
189.122	0.2667
189.502	0.26272
189.882	0.25725
190.262	0.25412
190.642	0.25711
191.022	0.25854
191.402	0.25486
191.781	0.25127
192.161	0.24923
192.541	0.251
192.92	0.25561
193.3	0.25737
193.68	0.25639
194.059	0.25576
194.439	0.25438
194.818	0.25592
195.198	0.25661
195.577	0.25749
195.957	0.2675
196.336	0.26758
196.715	0.26713
197.094	0.2689
197.474	0.27022
197.853	0.2731
198.232	0.27483
198.611	0.2729
198.99	0.27593
199.369	0.27875
199.748	0.28409
200.127	0.28701
200.506	0.28408
200.885	0.28304
201.264	0.28172
201.643	0.28252
202.022	0.28112
202.401	0.27802
202.779	0.27694
203.158	0.27711
203.537	0.27761
203.915	0.27358
204.294	0.2718
204.673	0.27778
205.051	0.27763
205.43	0.27854
205.808	0.27452
206.187	0.27667
206.565	0.27464
206.943	0.27071
207.322	0.27182
207.7	0.27054
208.078	0.27105
208.456	0.27375
208.835	0.27852
209.213	0.27894
209.591	0.28514
209.969	0.28639
210.347	0.28991
210.725	0.29014
211.103	0.29023
211.481	0.29132
211.859	0.29542
212.237	0.29569
212.614	0.2911
212.992	0.29316
213.37	0.29402
213.748	0.29589
214.125	0.29007
214.503	0.29744
214.881	0.30115
215.258	0.30075
215.636	0.30174
216.013	0.30301
216.391	0.30126
216.768	0.29723
217.145	0.29817
217.523	0.29446
217.9	0.29679
218.277	0.30269
218.655	0.30552
219.032	0.30489
219.409	0.30479
219.786	0.2969
220.163	0.29829
220.54	0.30122
220.917	0.29977
221.294	0.29724
221.671	0.29922
222.048	0.30356
222.425	0.29792
222.802	0.2982
223.179	0.29978
223.556	0.29863
223.932	0.29616
224.309	0.30041
224.686	0.29676
225.062	0.29789
225.439	0.29961
225.815	0.29634
226.192	0.29166
226.568	0.29282
226.945	0.29651
227.321	0.29603
227.698	0.29826
228.074	0.29927
228.45	0.29937
228.827	0.30433
229.203	0.31279
229.579	0.31232
229.955	0.31461
230.331	0.31711
230.707	0.31765
231.083	0.31743
231.46	0.31823
231.835	0.31827
232.211	0.31415
232.587	0.31963
232.963	0.32196
233.339	0.32057
233.715	0.32578
234.091	0.32646
234.466	0.32676
234.842	0.32802
235.218	0.32811
235.593	0.32841
235.969	0.3306
236.344	0.33369
236.72	0.33341
237.095	0.32781
237.471	0.33316
237.846	0.33293
238.222	0.33395
238.597	0.33773
238.972	0.33949
239.348	0.34054
239.723	0.34488
240.098	0.34744
240.473	0.34506
240.848	0.34622
241.223	0.35026
241.598	0.35424
241.973	0.35665
242.348	0.35851
242.723	0.35602
243.098	0.35812
243.473	0.35937
243.848	0.3601
244.223	0.35829
244.597	0.35959
244.972	0.3608
245.347	0.35879
245.721	0.36155
246.096	0.36276
246.47	0.36085
246.845	0.36057
247.219	0.36441
247.594	0.36307
247.968	0.36799
248.343	0.36933
248.717	0.36772
249.091	0.3675
249.466	0.36731
249.84	0.37089
250.214	0.36971
250.588	0.37321
250.962	0.3735
251.336	0.3783
251.71	0.37575
252.084	0.38036
252.458	0.38123
252.832	0.38541
253.206	0.38846
253.58	0.3868
253.954	0.38621
254.328	0.38821
254.702	0.39065
255.075	0.38822
255.449	0.39274
255.823	0.39347
256.196	0.39592
256.57	0.40119
256.943	0.40145
257.317	0.40399
257.69	0.4029
258.064	0.40417
258.437	0.40739
258.81	0.41003
259.184	0.41059
259.557	0.41926
259.93	0.42116
260.303	0.42285
260.677	0.42328
261.05	0.4261
261.423	0.42741
261.796	0.43252
262.169	0.43592
262.542	0.43749
262.915	0.4397
263.288	0.43759
263.661	0.4415
264.033	0.44318
264.406	0.44045
264.779	0.4409
265.152	0.44047
265.524	0.44211
265.897	0.44384
266.27	0.44478
266.642	0.44949
267.015	0.45312
267.387	0.45218
267.76	0.45448
268.132	0.45786
268.504	0.461
268.877	0.45977
269.249	0.46458
269.621	0.46541
269.994	0.46533
270.366	0.46708
270.738	0.4721
271.11	0.47585
271.482	0.47678
271.854	0.48358
272.226	0.49244
272.598	0.49901
272.97	0.50532
273.342	0.50968
273.714	0.51454
274.086	0.51892
274.458	0.52208
274.829	0.52503
275.201	0.5324
275.573	0.53619
275.944	0.54355
276.316	0.549
276.688	0.55886
277.059	0.56873
277.431	0.57616
277.802	0.58721
278.173	0.60174
278.545	0.62491
278.916	0.65809
279.287	0.69916
279.659	0.75113
280.03	0.80661
280.401	0.87033
280.772	0.92758
281.143	0.97868
281.515	1.02215
281.886	1.05801
282.257	1.08574
282.628	1.1069
282.998	1.12247
283.369	1.1352
283.74	1.1431
284.111	1.14938
284.482	1.15322
284.853	1.15475
285.223	1.15495
285.594	1.15435
285.965	1.15321
286.335	1.15024
286.706	1.14655
287.076	1.14228
287.447	1.13793
287.817	1.13293
288.188	1.12728
288.558	1.121
288.928	1.11441
289.299	1.10749
289.669	1.09997
290.039	1.09238
290.409	1.08443
290.779	1.07635
291.149	1.06773
291.52	1.05905
291.89	1.05053
292.26	1.04206
292.629	1.03349
292.999	1.02545
293.369	1.01769
293.739	1.01006
294.109	1.00258
294.479	0.99527
294.848	0.98807
295.218	0.98109
295.588	0.97408
295.957	0.96705
296.327	0.96057
296.696	0.95411
297.066	0.9475
297.435	0.94114
297.805	0.93432
298.174	0.92778
298.544	0.92129
298.913	0.91492
299.282	0.90873
299.651	0.90255
300.021	0.89652
300.39	0.89096
300.759	0.88536
301.128	0.87974
301.497	0.87445
301.866	0.86952
302.235	0.86458
302.604	0.85992
302.973	0.85511
303.342	0.85049
303.71	0.84591
304.079	0.84107
304.448	0.83594
304.817	0.83084
305.185	0.82547
305.554	0.8201
305.923	0.81443
306.291	0.80887
306.66	0.80333
307.028	0.79809
307.397	0.79271
307.765	0.7875
308.133	0.78213
308.502	0.77715
308.87	0.77216
309.238	0.76737
309.606	0.76272
309.975	0.75831
310.343	0.75401
310.711	0.75003
311.079	0.74615
311.447	0.74234
311.815	0.73871
312.183	0.73549
312.551	0.7324
312.919	0.7298
313.286	0.72755
313.654	0.7258
314.022	0.7242
314.39	0.72297
314.757	0.72166
315.125	0.72056
315.492	0.71957
315.86	0.7185
316.228	0.71708
316.595	0.71566
316.962	0.71401
317.33	0.71224
317.697	0.71035
318.065	0.70816
318.432	0.70567
318.799	0.70298
319.166	0.70031
319.534	0.69765
319.901	0.69512
320.268	0.69307
320.635	0.69105
321.002	0.68906
321.369	0.68712
321.736	0.68516
322.103	0.68288
322.47	0.68084
322.836	0.67896
323.203	0.67682
323.57	0.67484
323.937	0.67307
324.303	0.67134
324.67	0.66978
325.037	0.6683
325.403	0.66707
325.77	0.66594
326.136	0.66501
326.503	0.66434
326.869	0.66364
327.235	0.66313
327.602	0.66241
327.968	0.66149
328.334	0.66042
328.7	0.65948
329.067	0.65852
329.433	0.6575
329.799	0.65658
330.165	0.65581
330.531	0.65495
330.897	0.65435
331.263	0.65394
331.629	0.65349
331.995	0.65339
332.36	0.65331
332.726	0.65328
333.092	0.65324
333.458	0.65349
333.823	0.65362
334.189	0.65384
334.554	0.65414
334.92	0.6544
335.286	0.65481
335.651	0.65525
336.016	0.65571
336.382	0.65611
336.747	0.65645
337.113	0.65694
337.478	0.65747
337.843	0.65788
338.208	0.65853
338.573	0.6591
338.939	0.6596
339.304	0.66023
339.669	0.66078
340.034	0.66131
340.399	0.6619
340.764	0.66254
341.129	0.66316
341.493	0.66405
341.858	0.66502
342.223	0.6659
342.588	0.66691
342.952	0.66771
343.317	0.66857
343.682	0.66951
344.046	0.67055
344.411	0.67155
344.775	0.67249
345.14	0.6736
345.504	0.67478
345.869	0.67578
346.233	0.67676
346.597	0.67784
346.962	0.67894
347.326	0.67993
347.69	0.68078
348.054	0.68169
348.418	0.68274
348.782	0.6838
349.146	0.68472
349.51	0.68544
349.874	0.68658
350.238	0.68755
350.602	0.68876
350.966	0.68988
351.33	0.69108
351.693	0.69213
352.057	0.69336
352.421	0.69479
352.784	0.69618
353.148	0.69734
353.512	0.69881
353.875	0.70034
354.239	0.70182
354.602	0.70352
354.966	0.70515
355.329	0.70712
355.692	0.70912
356.056	0.71116
356.419	0.71307
356.782	0.71519
357.145	0.71738
357.508	0.71955
357.871	0.72174
358.234	0.72406
358.597	0.72644
358.96	0.72883
359.323	0.73148
359.686	0.73418
360.049	0.73675
360.412	0.73931
360.775	0.74213
361.137	0.74473
361.5	0.74759
361.863	0.75063
362.225	0.75341
362.588	0.75649
362.951	0.75952
363.313	0.76242
363.675	0.76522
364.038	0.76836
364.4	0.77163
364.763	0.77493
365.125	0.77815
365.487	0.78135
365.849	0.78464
366.212	0.78792
366.574	0.7914
366.936	0.79466
367.298	0.79814
367.66	0.80174
368.022	0.80553
368.384	0.80932
368.746	0.81337
369.108	0.81731
369.469	0.82123
369.831	0.8255
370.193	0.82981
370.555	0.83419
370.916	0.83872
371.278	0.84341
371.64	0.84804
372.001	0.85279
372.363	0.85752
372.724	0.86234
373.086	0.8672
373.447	0.87208
373.808	0.87701
374.17	0.88187
374.531	0.88681
374.892	0.89178
375.253	0.8968
375.615	0.90192
375.976	0.90724
376.337	0.91233
376.698	0.91775
377.059	0.92333
377.42	0.92879
377.781	0.93436
378.141	0.94018
378.502	0.9464
378.863	0.95253
379.224	0.95878
379.585	0.96466
379.945	0.97115
380.306	0.97747
380.666	0.98392
381.027	0.99055
381.388	0.99748
381.748	1.00423
382.108	1.01137
382.469	1.01854
382.829	1.02605
383.19	1.03373
383.55	1.04143
383.91	1.04913
384.27	1.0572
384.63	1.06519
384.991	1.07321
385.351	1.08114
385.711	1.08889
386.071	1.09666
386.431	1.10472
386.791	1.11272
387.15	1.12113
387.51	1.12952
387.87	1.138
388.23	1.14664
388.589	1.1557
388.949	1.16441
389.309	1.17386
389.668	1.18288
390.028	1.19167
390.387	1.20041
390.747	1.20938
391.106	1.21862
391.466	1.22793
391.825	1.23706
392.184	1.24643
392.544	1.25601
392.903	1.26557
393.262	1.27553
393.621	1.28551
393.98	1.29576
394.339	1.30608
394.698	1.31694
395.057	1.3277
395.416	1.33871
395.775	1.34999
396.134	1.36046
396.493	1.37152
396.852	1.38209
397.211	1.39405
397.569	1.40562
397.928	1.41737
398.287	1.42887
398.645	1.44056
399.004	1.45254
399.362	1.46474
399.721	1.47678
400.079	1.48877
400.438	1.50106
400.796	1.51332
401.154	1.52597
401.512	1.53957
401.871	1.55361
402.229	1.5667
402.587	1.57924
402.945	1.59161
403.303	1.60402
403.661	1.61694
404.019	1.6299
404.377	1.64268
404.735	1.65585
405.093	1.66877
405.451	1.68149
405.808	1.6945
406.166	1.70663
406.524	1.71975
406.882	1.73197
407.239	1.74473
407.597	1.75837
407.954	1.77054
408.312	1.78298
408.669	1.79567
409.027	1.80786
409.384	1.81958
409.741	1.83137
410.099	1.8441
410.456	1.85605
410.813	1.86805
411.17	1.87835
411.527	1.88946
411.884	1.90053
412.242	1.91033
412.599	1.92202
412.956	1.93357
413.312	1.94454
413.669	1.95408
414.026	1.96275
414.383	1.96954
414.74	1.97563
415.096	1.98049
415.453	1.98816
415.81	1.99279
416.166	1.99861
416.523	2.00674
416.879	2.01222
417.236	2.01804
417.592	2.02234
417.949	2.02726
418.305	2.03183
418.661	2.03757
419.018	2.0428
419.374	2.04622
419.73	2.04656
420.086	2.04609
420.442	2.04247
420.798	2.04026
421.154	2.04068
421.51	2.03623
421.866	2.03314
422.222	2.02925
422.578	2.02734
422.934	2.02111
423.29	2.01761
423.646	2.00945
424.001	1.99827
424.357	1.9912
424.713	1.98277
425.068	1.97247
425.424	1.96144
425.779	1.95094
426.135	1.93866
426.49	1.92649
426.845	1.9144
427.201	1.90113
427.556	1.8879
427.911	1.8791
428.266	1.8651
428.622	1.84819
428.977	1.83916
429.332	1.83285
429.687	1.82472
430.042	1.81677
430.397	1.81018
430.752	1.80293
431.107	1.80128
431.461	1.79457
431.816	1.78755
432.171	1.78241
432.526	1.78101
432.88	1.77749
433.235	1.77032
433.59	1.7641
433.944	1.7544
434.299	1.74625
434.653	1.74129
435.008	1.73528
435.362	1.72974
435.716	1.7234
436.071	1.71779
436.425	1.71317
436.779	1.70587
437.133	1.69822
437.487	1.69124
437.841	1.68242
438.195	1.67541
438.549	1.66672
438.903	1.65613
439.257	1.64796
439.611	1.63958
439.965	1.62797
440.319	1.61838
440.673	1.60917
441.026	1.59902
441.38	1.59103
441.734	1.58052
442.087	1.57016
442.441	1.56029
442.794	1.55092
443.148	1.53965
443.501	1.53223
443.855	1.52089
444.208	1.51193
444.561	1.5021
444.915	1.49058
445.268	1.48335
445.621	1.47556
445.974	1.46698
446.327	1.46212
446.68	1.4522
447.033	1.44295
447.386	1.43398
447.739	1.4239
448.092	1.41695
448.445	1.40871
448.798	1.39963
449.15	1.39107
449.503	1.38565
449.856	1.37689
450.209	1.36684
450.561	1.35992
450.914	1.35112
451.266	1.34181
451.619	1.33153
451.971	1.32298
452.323	1.31331
452.676	1.30333
453.028	1.29293
453.38	1.28232
453.733	1.27095
454.085	1.26203
454.437	1.25126
454.789	1.24032
455.141	1.23097
455.493	1.22092
455.845	1.21002
456.197	1.19927
456.549	1.18982
456.901	1.17916
457.253	1.16874
457.604	1.15911
457.956	1.1489
458.308	1.13965
458.659	1.13119
459.011	1.12308
459.362	1.11522
459.714	1.10717
460.065	1.09861
460.417	1.08861
460.768	1.08034
461.12	1.0719
461.471	1.06201
461.822	1.05335
462.173	1.04523
462.525	1.03682
462.876	1.02771
463.227	1.01991
463.578	1.01182
463.929	1.00338
464.28	0.99471
464.631	0.98752
464.982	0.98036
465.332	0.97214
465.683	0.96406
466.034	0.95597
466.385	0.94783
466.735	0.94011
467.086	0.93263
467.437	0.92542
467.787	0.91947
468.138	0.91197
468.488	0.90554
468.839	0.89897
469.189	0.89252
469.539	0.88585
469.89	0.87871
470.24	0.87223
470.59	0.86626
470.94	0.86018
471.29	0.85463
471.64	0.84887
471.99	0.84265
472.34	0.83609
472.69	0.83066
473.04	0.82468
473.39	0.81907
473.74	0.81342
474.09	0.80803
474.439	0.80244
474.789	0.79673
475.139	0.79123
475.488	0.78624
475.838	0.78071
476.188	0.77607
476.537	0.7708
476.886	0.76541
477.236	0.76018
477.585	0.75519
477.935	0.7499
478.284	0.74467
478.633	0.73921
478.982	0.73437
479.331	0.72992
479.68	0.72564
480.03	0.72121
480.379	0.71711
480.728	0.71283
481.076	0.70884
481.425	0.70429
481.774	0.69976
482.123	0.69601
482.472	0.69181
482.821	0.68787
483.169	0.68367
483.518	0.67931
483.866	0.6753
484.215	0.67174
484.563	0.66842
484.912	0.66452
485.26	0.66088
485.609	0.65743
485.957	0.6541
486.305	0.65059
486.654	0.64689
487.002	0.64318
487.35	0.6397
487.698	0.63629
488.046	0.63289
488.394	0.62938
488.742	0.62593
489.09	0.62273
489.438	0.61942
489.786	0.61629
490.134	0.61283
490.482	0.60974
490.829	0.60664
491.177	0.60364
491.525	0.60036
491.872	0.5973
492.22	0.5942
492.567	0.59134
492.915	0.58837
493.262	0.58526
493.61	0.58235
493.957	0.57935
494.304	0.57658
494.652	0.57387
494.999	0.57086
495.346	0.56796
495.693	0.5652
496.04	0.56252
496.387	0.5598
496.734	0.55678
497.081	0.55387
497.428	0.55111
497.775	0.54846
498.122	0.54594
498.469	0.54334
498.816	0.54092
499.162	0.53826
499.509	0.53613
499.856	0.5335
500.202	0.53117
500.549	0.529
500.895	0.52644
501.242	0.52395
501.588	0.52168
501.935	0.51908
502.281	0.517
502.627	0.51482
502.973	0.51232
503.32	0.51018
503.666	0.50792
504.012	0.50584
504.358	0.50371
504.704	0.50162
505.05	0.49937
505.396	0.49709
505.742	0.49492
506.088	0.49282
506.433	0.49061
506.779	0.48831
507.125	0.48625
507.471	0.4842
507.816	0.48214
508.162	0.48024
508.507	0.47825
508.853	0.47632
509.198	0.47453
509.544	0.47218
509.889	0.46996
510.234	0.46815
510.58	0.46604
510.925	0.46407
511.27	0.46226
511.615	0.46031
511.96	0.45849
512.306	0.45655
512.651	0.45458
512.996	0.45277
513.341	0.45095
513.685	0.44918
514.03	0.4473
514.375	0.44526
514.72	0.44323
515.065	0.44103
515.409	0.43894
515.754	0.43708
516.099	0.43505
516.443	0.433
516.788	0.43125
517.132	0.42943
517.476	0.42749
517.821	0.42564
518.165	0.42387
518.51	0.42159
518.854	0.41969
519.198	0.4176
519.542	0.41577
519.886	0.41391
520.23	0.41182
520.574	0.40976
520.918	0.40773
521.262	0.40561
521.606	0.40354
521.95	0.40169
522.294	0.39971
522.638	0.39769
522.981	0.39574
523.325	0.39363
523.669	0.39162
524.012	0.38954
524.356	0.38748
524.699	0.3852
525.043	0.3832
525.386	0.38088
525.73	0.3789
526.073	0.37671
526.416	0.37458
526.76	0.37238
527.103	0.37017
527.446	0.36807
527.789	0.36587
528.132	0.36371
528.475	0.36169
528.818	0.35972
529.161	0.35745
529.504	0.35543
529.847	0.35311
530.19	0.35092
530.532	0.34868
530.875	0.34644
531.218	0.34419
531.56	0.342
531.903	0.33992
532.246	0.33762
532.588	0.33564
532.93	0.33351
533.273	0.33139
533.615	0.32914
533.958	0.32691
534.3	0.32481
534.642	0.32276
534.984	0.32073
535.326	0.31851
535.669	0.3164
536.011	0.31429
536.353	0.31224
536.695	0.31
537.037	0.30803
537.378	0.30566
537.72	0.30374
538.062	0.3017
538.404	0.29967
538.746	0.29764
539.087	0.2955
539.429	0.29343
539.77	0.29132
540.112	0.28921
540.454	0.28721
540.795	0.2852
541.136	0.28329
541.478	0.28129
541.819	0.27918
542.16	0.27706
542.502	0.27519
542.843	0.27312
543.184	0.27099
543.525	0.26895
543.866	0.26698
544.207	0.265
544.548	0.26318
544.889	0.26119
545.23	0.25922
545.571	0.25728
545.911	0.25535
546.252	0.25373
546.593	0.25191
546.934	0.25
547.274	0.24816
547.615	0.24632
547.955	0.24461
548.296	0.24277
548.636	0.24102
548.977	0.23913
549.317	0.23734
549.657	0.23557
549.997	0.23382
550.338	0.23214
550.678	0.23042
551.018	0.22872
551.358	0.2271
551.698	0.22555
552.038	0.22383
552.378	0.22227
552.718	0.22046
553.058	0.21862
553.398	0.21679
553.737	0.21503
554.077	0.21346
554.417	0.21182
554.756	0.21011
555.096	0.20851
555.435	0.20695
555.775	0.20533
556.114	0.20385
556.454	0.20233
556.793	0.20056
557.133	0.19912
557.472	0.19757
557.811	0.1961
558.15	0.1946
558.489	0.19315
558.829	0.19168
559.168	0.19029
559.507	0.18882
559.846	0.18759
560.184	0.18647
560.523	0.18519
560.862	0.18384
561.201	0.18248
561.54	0.18133
561.878	0.18001
562.217	0.17862
562.556	0.17738
562.894	0.17619
563.233	0.17502
563.571	0.1739
563.91	0.17279
564.248	0.17158
564.586	0.17048
564.925	0.16924
565.263	0.16825
565.601	0.16704
565.939	0.16588
566.277	0.16477
566.616	0.16365
566.954	0.16243
567.292	0.16118
567.63	0.16008
567.967	0.15906
568.305	0.1579
568.643	0.15657
568.981	0.1555
569.319	0.15449
569.656	0.15329
569.994	0.15231
570.331	0.15126
570.669	0.15018
571.006	0.14915
571.344	0.148
571.681	0.14685
572.019	0.14568
572.356	0.14453
572.693	0.14358
573.03	0.14249
573.368	0.1414
573.705	0.14051
574.042	0.13963
574.379	0.13872
574.716	0.13769
575.053	0.13684
575.39	0.13584
575.727	0.13499
576.063	0.13408
576.4	0.13302
576.737	0.13202
577.074	0.13096
577.41	0.12996
577.747	0.12896
578.083	0.12797
578.42	0.12721
578.756	0.12648
579.093	0.12575
579.429	0.12489
579.766	0.12404
580.102	0.12334
580.438	0.12251
580.774	0.12158
581.11	0.12068
581.446	0.11981
581.782	0.11904
582.119	0.11807
582.454	0.11723
582.79	0.11648
583.126	0.11568
583.462	0.11503
583.798	0.11432
584.134	0.1135
584.469	0.11277
584.805	0.11209
585.141	0.11142
585.476	0.11065
585.812	0.10977
586.147	0.1091
586.482	0.10832
586.818	0.10765
587.153	0.1069
587.488	0.10626
587.824	0.10557
588.159	0.10485
588.494	0.1042
588.829	0.10345
589.164	0.10275
589.499	0.10218
589.834	0.10144
590.169	0.10089
590.504	0.10029
590.839	0.09965
591.174	0.09905
591.508	0.09839
591.843	0.09767
592.178	0.09699
592.512	0.09627
592.847	0.09568
593.181	0.09511
593.516	0.09459
593.85	0.09394
594.185	0.09332
594.519	0.09268
594.853	0.09208
595.187	0.09157
595.522	0.09093
595.856	0.0904
596.19	0.09002
596.524	0.08939
596.858	0.08885
597.192	0.08819
597.526	0.08755
597.86	0.08698
598.194	0.08645
598.527	0.08586
598.861	0.08535
599.195	0.08471
