Data from 20 min_Absorbance_12-58-31-984.txt Node
Date: Thu Feb 02 12:58:31 EST 2023
User: UV-vis
Spectrometer: FLMS04918
Trigger mode: 0
Integration Time (sec): 1.850000E-3
Scans to average: 10
Electric dark correction enabled: true
Nonlinearity correction enabled: false
Boxcar width: 10
XAxis mode: Wavelengths
Number of Pixels in Spectrum: 2048
>>>>>Begin Spectral Data<<<<<
179.23	-0
179.611	-1.09386
179.992	-1.6902
180.373	-0
180.754	-0
181.134	-0
181.515	-0
181.896	-0
182.276	-0
182.657	-0
183.038	-0
183.418	-0
183.799	-0
184.179	-0.07855
184.56	0.1196
184.94	0.12998
185.32	0.14137
185.701	0.14468
186.081	0.1508
186.461	0.16104
186.842	0.17202
187.222	0.18152
187.602	0.18764
187.982	0.18375
188.362	0.18691
188.742	0.1808
189.122	0.17638
189.502	0.1769
189.882	0.17687
190.262	0.17383
190.642	0.17561
191.022	0.17458
191.402	0.17436
191.781	0.17192
192.161	0.17388
192.541	0.17425
192.92	0.17562
193.3	0.1739
193.68	0.17175
194.059	0.17339
194.439	0.17548
194.818	0.17307
195.198	0.17129
195.577	0.16888
195.957	0.17164
196.336	0.16991
196.715	0.1687
197.094	0.16801
197.474	0.168
197.853	0.16998
198.232	0.17147
198.611	0.17191
198.99	0.17293
199.369	0.17471
199.748	0.17826
200.127	0.17901
200.506	0.17681
200.885	0.17594
201.264	0.17876
201.643	0.17724
202.022	0.17339
202.401	0.17044
202.779	0.16816
203.158	0.17036
203.537	0.17269
203.915	0.17147
204.294	0.17279
204.673	0.1727
205.051	0.17375
205.43	0.17433
205.808	0.17185
206.187	0.17184
206.565	0.17162
206.943	0.17099
207.322	0.17183
207.7	0.17093
208.078	0.17104
208.456	0.17333
208.835	0.17724
209.213	0.17665
209.591	0.17838
209.969	0.17807
210.347	0.17802
210.725	0.18126
211.103	0.1802
211.481	0.18066
211.859	0.18235
212.237	0.18271
212.614	0.18594
212.992	0.18684
213.37	0.18711
213.748	0.18967
214.125	0.18779
214.503	0.19065
214.881	0.18887
215.258	0.18779
215.636	0.18938
216.013	0.1894
216.391	0.19093
216.768	0.19009
217.145	0.19428
217.523	0.19251
217.9	0.1973
218.277	0.20106
218.655	0.20237
219.032	0.20285
219.409	0.19924
219.786	0.19567
220.163	0.19446
220.54	0.19217
220.917	0.19069
221.294	0.19031
221.671	0.189
222.048	0.18967
222.425	0.18665
222.802	0.19026
223.179	0.19293
223.556	0.18975
223.932	0.18809
224.309	0.1888
224.686	0.18931
225.062	0.18534
225.439	0.19105
225.815	0.1908
226.192	0.19045
226.568	0.18913
226.945	0.19208
227.321	0.19384
227.698	0.19754
228.074	0.19925
228.45	0.20112
228.827	0.20732
229.203	0.21015
229.579	0.21369
229.955	0.21745
230.331	0.22001
230.707	0.21919
231.083	0.22016
231.46	0.22016
231.835	0.22272
232.211	0.22058
232.587	0.22017
232.963	0.22252
233.339	0.21976
233.715	0.22179
234.091	0.22162
234.466	0.2229
234.842	0.22313
235.218	0.22378
235.593	0.22162
235.969	0.2219
236.344	0.22501
236.72	0.22432
237.095	0.22224
237.471	0.22105
237.846	0.21955
238.222	0.21705
238.597	0.22041
238.972	0.22165
239.348	0.22396
239.723	0.22587
240.098	0.22717
240.473	0.22978
240.848	0.22899
241.223	0.23205
241.598	0.22985
241.973	0.23147
242.348	0.23205
242.723	0.2315
243.098	0.23335
243.473	0.23522
243.848	0.23648
244.223	0.23456
244.597	0.23341
244.972	0.23407
245.347	0.23503
245.721	0.23757
246.096	0.24351
246.47	0.24645
246.845	0.24472
247.219	0.24822
247.594	0.2483
247.968	0.25273
248.343	0.25068
248.717	0.25422
249.091	0.25111
249.466	0.25366
249.84	0.25435
250.214	0.25379
250.588	0.25476
250.962	0.25591
251.336	0.25873
251.71	0.25891
252.084	0.25972
252.458	0.26121
252.832	0.26564
253.206	0.26995
253.58	0.27287
253.954	0.27434
254.328	0.27198
254.702	0.27742
255.075	0.27628
255.449	0.27853
255.823	0.27588
256.196	0.2817
256.57	0.28401
256.943	0.28812
257.317	0.28754
257.69	0.28931
258.064	0.29236
258.437	0.29912
258.81	0.30107
259.184	0.30272
259.557	0.30702
259.93	0.31159
260.303	0.3138
260.677	0.31629
261.05	0.31643
261.423	0.31766
261.796	0.315
262.169	0.31673
262.542	0.31505
262.915	0.31754
263.288	0.31699
263.661	0.32159
264.033	0.31847
264.406	0.31653
264.779	0.31855
265.152	0.32066
265.524	0.32262
265.897	0.32599
266.27	0.3248
266.642	0.32549
267.015	0.32858
267.387	0.33142
267.76	0.33534
268.132	0.3379
268.504	0.33843
268.877	0.33909
269.249	0.33811
269.621	0.34327
269.994	0.3476
270.366	0.35108
270.738	0.3522
271.11	0.35536
271.482	0.35772
271.854	0.36251
272.226	0.36782
272.598	0.37118
272.97	0.37827
273.342	0.37982
273.714	0.38245
274.086	0.38679
274.458	0.39238
274.829	0.39698
275.201	0.39871
275.573	0.40075
275.944	0.40659
276.316	0.41171
276.688	0.42335
277.059	0.43472
277.431	0.44153
277.802	0.4488
278.173	0.46354
278.545	0.48797
278.916	0.52094
279.287	0.56333
279.659	0.61481
280.03	0.67429
280.401	0.73364
280.772	0.78856
281.143	0.83845
281.515	0.87996
281.886	0.91365
282.257	0.94075
282.628	0.96122
282.998	0.97834
283.369	0.99058
283.74	0.99962
284.111	1.00655
284.482	1.01052
284.853	1.01157
285.223	1.01265
285.594	1.01274
285.965	1.01173
286.335	1.00938
286.706	1.00617
287.076	1.00231
287.447	0.99828
287.817	0.99336
288.188	0.98816
288.558	0.9827
288.928	0.97654
289.299	0.97017
289.669	0.96307
290.039	0.95589
290.409	0.94826
290.779	0.94046
291.149	0.9327
291.52	0.92475
291.89	0.91671
292.26	0.90866
292.629	0.90119
292.999	0.89357
293.369	0.88596
293.739	0.87864
294.109	0.87159
294.479	0.865
294.848	0.85845
295.218	0.85206
295.588	0.84589
295.957	0.83987
296.327	0.83375
296.696	0.82793
297.066	0.82196
297.435	0.81643
297.805	0.81059
298.174	0.80509
298.544	0.7992
298.913	0.79337
299.282	0.78792
299.651	0.78261
300.021	0.77717
300.39	0.77193
300.759	0.76688
301.128	0.76221
301.497	0.75764
301.866	0.75338
302.235	0.749
302.604	0.74484
302.973	0.74065
303.342	0.73653
303.71	0.7322
304.079	0.72801
304.448	0.7237
304.817	0.71919
305.185	0.71437
305.554	0.70938
305.923	0.7042
306.291	0.6994
306.66	0.69438
307.028	0.6896
307.397	0.68455
307.765	0.67985
308.133	0.67487
308.502	0.67009
308.87	0.66498
309.238	0.66033
309.606	0.65575
309.975	0.65132
310.343	0.6469
310.711	0.64281
311.079	0.63862
311.447	0.6347
311.815	0.63093
312.183	0.62738
312.551	0.62401
312.919	0.62096
313.286	0.61832
313.654	0.61592
314.022	0.61365
314.39	0.6117
314.757	0.6097
315.125	0.60792
315.492	0.60606
315.86	0.60416
316.228	0.6019
316.595	0.59995
316.962	0.59736
317.33	0.59457
317.697	0.59156
318.065	0.58842
318.432	0.58467
318.799	0.58101
319.166	0.57707
319.534	0.57302
319.901	0.56924
320.268	0.56587
320.635	0.56261
321.002	0.55935
321.369	0.55607
321.736	0.5527
322.103	0.5493
322.47	0.54589
322.836	0.54242
323.203	0.53898
323.57	0.53557
323.937	0.53245
324.303	0.52915
324.67	0.52601
325.037	0.52281
325.403	0.52004
325.77	0.51722
326.136	0.51477
326.503	0.51236
326.869	0.51002
327.235	0.50784
327.602	0.50541
327.968	0.50289
328.334	0.50013
328.7	0.4974
329.067	0.49477
329.433	0.4922
329.799	0.48963
330.165	0.48716
330.531	0.48482
330.897	0.48241
331.263	0.48043
331.629	0.47829
331.995	0.4763
332.36	0.47462
332.726	0.47303
333.092	0.47136
333.458	0.46989
333.823	0.4683
334.189	0.46676
334.554	0.46532
334.92	0.46391
335.286	0.46264
335.651	0.46124
336.016	0.45988
336.382	0.45862
336.747	0.45731
337.113	0.45605
337.478	0.45466
337.843	0.45324
338.208	0.45187
338.573	0.45066
338.939	0.44913
339.304	0.44782
339.669	0.44656
340.034	0.44517
340.399	0.44396
340.764	0.44261
341.129	0.44129
341.493	0.44019
341.858	0.43895
342.223	0.43778
342.588	0.4366
342.952	0.43516
343.317	0.4339
343.682	0.43274
344.046	0.43138
344.411	0.43005
344.775	0.42859
345.14	0.42738
345.504	0.42614
345.869	0.42467
346.233	0.42311
346.597	0.42174
346.962	0.42029
347.326	0.4187
347.69	0.41709
348.054	0.41532
348.418	0.41372
348.782	0.41204
349.146	0.41019
349.51	0.40839
349.874	0.40663
350.238	0.40482
350.602	0.40314
350.966	0.40141
351.33	0.39963
351.693	0.39802
352.057	0.39642
352.421	0.3948
352.784	0.39323
353.148	0.39155
353.512	0.39005
353.875	0.38858
354.239	0.38704
354.602	0.38553
354.966	0.3841
355.329	0.38266
355.692	0.3813
356.056	0.37995
356.419	0.3786
356.782	0.37749
357.145	0.37634
357.508	0.37514
357.871	0.37398
358.234	0.37278
358.597	0.37167
358.96	0.37054
359.323	0.36934
359.686	0.36817
360.049	0.36708
360.412	0.36581
360.775	0.3646
361.137	0.36334
361.5	0.36221
361.863	0.36112
362.225	0.35991
362.588	0.3588
362.951	0.35768
363.313	0.35652
363.675	0.35516
364.038	0.35398
364.4	0.35276
364.763	0.35162
365.125	0.35044
365.487	0.34931
365.849	0.3483
366.212	0.3472
366.574	0.34628
366.936	0.34528
367.298	0.34437
367.66	0.34347
368.022	0.34265
368.384	0.34172
368.746	0.341
369.108	0.34011
369.469	0.33905
369.831	0.33814
370.193	0.33733
370.555	0.33648
370.916	0.33558
371.278	0.33487
371.64	0.33412
372.001	0.3332
372.363	0.33239
372.724	0.33175
373.086	0.33101
373.447	0.3303
373.808	0.32958
374.17	0.3288
374.531	0.32812
374.892	0.32735
375.253	0.32666
375.615	0.32597
375.976	0.32548
376.337	0.32484
376.698	0.32416
377.059	0.32377
377.42	0.32339
377.781	0.32288
378.141	0.32248
378.502	0.32219
378.863	0.32192
379.224	0.32152
379.585	0.32132
379.945	0.3211
380.306	0.32079
380.666	0.32051
381.027	0.32028
381.388	0.3201
381.748	0.3199
382.108	0.31972
382.469	0.31964
382.829	0.31953
383.19	0.31946
383.55	0.31927
383.91	0.31907
384.27	0.31906
384.63	0.3189
384.991	0.31873
385.351	0.31855
385.711	0.31841
386.071	0.31833
386.431	0.31824
386.791	0.31819
387.15	0.31814
387.51	0.31822
387.87	0.31827
388.23	0.31829
388.589	0.3183
388.949	0.31819
389.309	0.31815
389.668	0.3182
390.028	0.31824
390.387	0.31831
390.747	0.31851
391.106	0.31879
391.466	0.31925
391.825	0.31974
392.184	0.32024
392.544	0.32063
392.903	0.32118
393.262	0.32156
393.621	0.32205
393.98	0.3226
394.339	0.3231
394.698	0.32365
395.057	0.32406
395.416	0.32457
395.775	0.32526
396.134	0.32602
396.493	0.32691
396.852	0.32779
397.211	0.32857
397.569	0.32943
397.928	0.33011
398.287	0.33093
398.645	0.33177
399.004	0.33234
399.362	0.33291
399.721	0.33366
400.079	0.33442
400.438	0.33503
400.796	0.33592
401.154	0.33654
401.512	0.33714
401.871	0.33798
402.229	0.33882
402.587	0.33969
402.945	0.34054
403.303	0.34134
403.661	0.34196
404.019	0.3427
404.377	0.34345
404.735	0.34425
405.093	0.34488
405.451	0.34569
405.808	0.34625
406.166	0.34679
406.524	0.3475
406.882	0.34809
407.239	0.34871
407.597	0.34945
407.954	0.35017
408.312	0.35078
408.669	0.35147
409.027	0.3522
409.384	0.35297
409.741	0.3536
410.099	0.35423
410.456	0.35494
410.813	0.35555
411.17	0.35626
411.527	0.3569
411.884	0.35769
412.242	0.35843
412.599	0.3592
412.956	0.36003
413.312	0.36078
413.669	0.36154
414.026	0.36239
414.383	0.36312
414.74	0.36356
415.096	0.36419
415.453	0.36481
415.81	0.36562
416.166	0.36653
416.523	0.36739
416.879	0.36813
417.236	0.36894
417.592	0.36967
417.949	0.3704
418.305	0.37118
418.661	0.37194
419.018	0.37261
419.374	0.37309
419.73	0.37368
420.086	0.37433
420.442	0.37469
420.798	0.37533
421.154	0.37582
421.51	0.3762
421.866	0.37674
422.222	0.37746
422.578	0.37791
422.934	0.37855
423.29	0.37895
423.646	0.37943
424.001	0.37974
424.357	0.37998
424.713	0.3804
425.068	0.38105
425.424	0.38145
425.779	0.38208
426.135	0.38242
426.49	0.38298
426.845	0.38347
427.201	0.38389
427.556	0.38418
427.911	0.3848
428.266	0.38501
428.622	0.38558
428.977	0.38623
429.332	0.38664
429.687	0.38717
430.042	0.3879
430.397	0.38837
430.752	0.38879
431.107	0.38904
431.461	0.38963
431.816	0.39035
432.171	0.39093
432.526	0.39143
432.88	0.3921
433.235	0.3925
433.59	0.3932
433.944	0.39343
434.299	0.39396
434.653	0.39469
435.008	0.39538
435.362	0.3959
435.716	0.39627
436.071	0.39657
436.425	0.39692
436.779	0.39741
437.133	0.39784
437.487	0.39838
437.841	0.39871
438.195	0.39916
438.549	0.39983
438.903	0.40032
439.257	0.4008
439.611	0.40122
439.965	0.40154
440.319	0.402
440.673	0.40229
441.026	0.40253
441.38	0.40327
441.734	0.40364
442.087	0.40378
442.441	0.40407
442.794	0.40504
443.148	0.40563
443.501	0.40645
443.855	0.40664
444.208	0.4075
444.561	0.40816
444.915	0.40871
445.268	0.40922
445.621	0.40977
445.974	0.41001
446.327	0.41079
446.68	0.41141
447.033	0.41195
447.386	0.41275
447.739	0.41306
448.092	0.41353
448.445	0.41428
448.798	0.41454
449.15	0.41526
449.503	0.41573
449.856	0.4163
450.209	0.41653
450.561	0.41719
450.914	0.41753
451.266	0.41828
451.619	0.41868
451.971	0.41908
452.323	0.41937
452.676	0.42011
453.028	0.42086
453.38	0.42114
453.733	0.42125
454.085	0.42172
454.437	0.42185
454.789	0.42201
455.141	0.42241
455.493	0.42273
455.845	0.42306
456.197	0.4235
456.549	0.42389
456.901	0.42424
457.253	0.42422
457.604	0.42445
457.956	0.4248
458.308	0.42519
458.659	0.42559
459.011	0.42567
459.362	0.42593
459.714	0.42611
460.065	0.42621
460.417	0.4261
460.768	0.42661
461.12	0.42697
461.471	0.42742
461.822	0.42769
462.173	0.42805
462.525	0.42824
462.876	0.42867
463.227	0.42901
463.578	0.4292
463.929	0.42957
464.28	0.42977
464.631	0.42988
464.982	0.4302
465.332	0.43007
465.683	0.42979
466.034	0.42988
466.385	0.43004
466.735	0.43005
467.086	0.43004
467.437	0.43004
467.787	0.43033
468.138	0.43043
468.488	0.43058
468.839	0.4305
469.189	0.43082
469.539	0.43085
469.89	0.43129
470.24	0.43107
470.59	0.43109
470.94	0.43118
471.29	0.43086
471.64	0.4309
471.99	0.43125
472.34	0.43093
472.69	0.43129
473.04	0.43161
473.39	0.43147
473.74	0.43144
474.09	0.43148
474.439	0.43158
474.789	0.43154
475.139	0.43163
475.488	0.4319
475.838	0.43164
476.188	0.4316
476.537	0.43139
476.886	0.43111
477.236	0.43068
477.585	0.43049
477.935	0.4303
478.284	0.43011
478.633	0.42989
478.982	0.42994
479.331	0.42985
479.68	0.42993
480.03	0.42925
480.379	0.42907
480.728	0.42885
481.076	0.42879
481.425	0.42848
481.774	0.42804
482.123	0.42801
482.472	0.42749
482.821	0.42679
483.169	0.42653
483.518	0.4258
483.866	0.42518
484.215	0.42465
484.563	0.42417
484.912	0.42364
485.26	0.42308
485.609	0.42265
485.957	0.42205
486.305	0.42131
486.654	0.42041
487.002	0.41966
487.35	0.41912
487.698	0.41813
488.046	0.4172
488.394	0.41617
488.742	0.4151
489.09	0.41429
489.438	0.41332
489.786	0.41233
490.134	0.41126
490.482	0.41014
490.829	0.40918
491.177	0.40809
491.525	0.40687
491.872	0.40574
492.22	0.40462
492.567	0.40324
492.915	0.40182
493.262	0.4006
493.61	0.39924
493.957	0.39832
494.304	0.39701
494.652	0.39571
494.999	0.39464
495.346	0.39323
495.693	0.39186
496.04	0.39077
496.387	0.38928
496.734	0.38773
497.081	0.38641
497.428	0.38501
497.775	0.38373
498.122	0.3824
498.469	0.38094
498.816	0.37967
499.162	0.37844
499.509	0.37709
499.856	0.37569
500.202	0.37416
500.549	0.3726
500.895	0.37101
501.242	0.36909
501.588	0.36743
501.935	0.36591
502.281	0.36423
502.627	0.3628
502.973	0.36126
503.32	0.35947
503.666	0.35783
504.012	0.35611
504.358	0.35435
504.704	0.35269
505.05	0.35085
505.396	0.34923
505.742	0.34745
506.088	0.3458
506.433	0.34381
506.779	0.34195
507.125	0.34019
507.471	0.33853
507.816	0.3369
508.162	0.33526
508.507	0.33342
508.853	0.33174
509.198	0.32991
509.544	0.32815
509.889	0.32616
510.234	0.32448
510.58	0.32272
510.925	0.32094
511.27	0.3192
511.615	0.31728
511.96	0.31553
512.306	0.31382
512.651	0.31175
512.996	0.3101
513.341	0.30814
513.685	0.30637
514.03	0.30453
514.375	0.30255
514.72	0.30064
515.065	0.29864
515.409	0.29664
515.754	0.2949
516.099	0.29303
516.443	0.29128
516.788	0.2895
517.132	0.28774
517.476	0.28589
517.821	0.28396
518.165	0.28224
518.51	0.28022
518.854	0.27843
519.198	0.27642
519.542	0.27458
519.886	0.27277
520.23	0.27095
520.574	0.26917
520.918	0.26731
521.262	0.26552
521.606	0.26366
521.95	0.26177
522.294	0.2599
522.638	0.25811
522.981	0.25624
523.325	0.25427
523.669	0.25238
524.012	0.25038
524.356	0.24857
524.699	0.24661
525.043	0.24505
525.386	0.24316
525.73	0.24149
526.073	0.23968
526.416	0.23792
526.76	0.23604
527.103	0.23432
527.446	0.23233
527.789	0.23057
528.132	0.22874
528.475	0.22688
528.818	0.22521
529.161	0.22348
529.504	0.22192
529.847	0.22003
530.19	0.21836
530.532	0.21682
530.875	0.21497
531.218	0.21319
531.56	0.21141
531.903	0.20961
532.246	0.20768
532.588	0.20597
532.93	0.20429
533.273	0.20254
533.615	0.20084
533.958	0.19922
534.3	0.19753
534.642	0.19599
534.984	0.19431
535.326	0.19269
535.669	0.19116
536.011	0.18951
536.353	0.18803
536.695	0.18624
537.037	0.18486
537.378	0.18311
537.72	0.18161
538.062	0.18005
538.404	0.17879
538.746	0.17733
539.087	0.17589
539.429	0.17438
539.77	0.17284
540.112	0.17128
540.454	0.16985
540.795	0.16831
541.136	0.16674
541.478	0.16528
541.819	0.16383
542.16	0.16232
542.502	0.16105
542.843	0.15946
543.184	0.15795
543.525	0.15645
543.866	0.15497
544.207	0.15348
544.548	0.15207
544.889	0.15052
545.23	0.14925
545.571	0.14775
545.911	0.14638
546.252	0.14507
546.593	0.14378
546.934	0.14251
547.274	0.14106
547.615	0.13979
547.955	0.13858
548.296	0.13742
548.636	0.13612
548.977	0.13461
549.317	0.13334
549.657	0.13197
549.997	0.13078
550.338	0.12958
550.678	0.12843
551.018	0.12731
551.358	0.12602
551.698	0.12505
552.038	0.12387
552.378	0.12267
552.718	0.12127
553.058	0.11997
553.398	0.11868
553.737	0.11748
554.077	0.11628
554.417	0.11532
554.756	0.11401
555.096	0.1128
555.435	0.11146
555.775	0.11035
556.114	0.10948
556.454	0.10847
556.793	0.10719
557.133	0.1062
557.472	0.1052
557.811	0.10411
558.15	0.10309
558.489	0.10215
558.829	0.101
559.168	0.10001
559.507	0.09898
559.846	0.09815
560.184	0.09726
560.523	0.09635
560.862	0.09548
561.201	0.09464
561.54	0.09361
561.878	0.09263
562.217	0.09159
562.556	0.09085
562.894	0.09005
563.233	0.08905
563.571	0.08814
563.91	0.08739
564.248	0.08653
564.586	0.08556
564.925	0.0847
565.263	0.08382
565.601	0.08297
565.939	0.08209
566.277	0.08124
566.616	0.08046
566.954	0.07962
567.292	0.07868
567.63	0.0779
567.967	0.07705
568.305	0.07615
568.643	0.07531
568.981	0.07461
569.319	0.07394
569.656	0.07305
569.994	0.07219
570.331	0.0714
570.669	0.07061
571.006	0.06984
571.344	0.069
571.681	0.0683
572.019	0.06738
572.356	0.06659
572.693	0.06585
573.03	0.06514
573.368	0.06434
573.705	0.06372
574.042	0.06302
574.379	0.06236
574.716	0.06156
575.053	0.06085
575.39	0.06004
575.727	0.05933
576.063	0.05868
576.4	0.05793
576.737	0.05719
577.074	0.0565
577.41	0.05587
577.747	0.05518
578.083	0.0545
578.42	0.05396
578.756	0.05327
579.093	0.05271
579.429	0.05215
579.766	0.05152
580.102	0.0509
580.438	0.05032
580.774	0.04963
581.11	0.04898
581.446	0.04851
581.782	0.048
582.119	0.04736
582.454	0.04689
582.79	0.0464
583.126	0.04573
583.462	0.04527
583.798	0.04489
584.134	0.04437
584.469	0.04384
584.805	0.04333
585.141	0.04284
585.476	0.04211
585.812	0.0417
586.147	0.0413
586.482	0.04068
586.818	0.04032
587.153	0.03984
587.488	0.03943
587.824	0.03881
588.159	0.03828
588.494	0.03776
588.829	0.03727
589.164	0.03687
589.499	0.03637
589.834	0.03596
590.169	0.0357
590.504	0.03521
590.839	0.03481
591.174	0.03431
591.508	0.03399
591.843	0.03345
592.178	0.033
592.512	0.03276
592.847	0.03226
593.181	0.03179
593.516	0.03151
593.85	0.0309
594.185	0.03054
594.519	0.03008
594.853	0.02968
595.187	0.02936
595.522	0.0289
595.856	0.02848
596.19	0.02806
596.524	0.02766
596.858	0.02728
597.192	0.0268
597.526	0.02634
597.86	0.02576
598.194	0.0253
598.527	0.02479
598.861	0.0245
599.195	0.02391
599.528	0.02352
