Data from 7 min_Absorbance_12-35-37-045.txt Node
Date: Thu Feb 02 12:35:37 EST 2023
User: UV-vis
Spectrometer: FLMS04918
Trigger mode: 0
Integration Time (sec): 1.850000E-3
Scans to average: 10
Electric dark correction enabled: true
Nonlinearity correction enabled: false
Boxcar width: 10
XAxis mode: Wavelengths
Number of Pixels in Spectrum: 2048
>>>>>Begin Spectral Data<<<<<
179.23	-0
179.611	-0.4998
179.992	-1.26191
180.373	-0
180.754	-0
181.134	-0
181.515	-0
181.896	-0
182.276	-0
182.657	2.35555
183.038	1.37695
183.418	0.80258
183.799	0.12252
184.179	0.4064
184.56	0.26863
184.94	0.28608
185.32	0.28901
185.701	0.2836
186.081	0.29395
186.461	0.2915
186.842	0.29363
187.222	0.29143
187.602	0.28859
187.982	0.28085
188.362	0.28865
188.742	0.2845
189.122	0.27643
189.502	0.27655
189.882	0.27288
190.262	0.27224
190.642	0.27012
191.022	0.27153
191.402	0.26975
191.781	0.26824
192.161	0.27204
192.541	0.27602
192.92	0.27746
193.3	0.28109
193.68	0.28158
194.059	0.27968
194.439	0.28381
194.818	0.27953
195.198	0.2786
195.577	0.27942
195.957	0.2908
196.336	0.28973
196.715	0.29259
197.094	0.29547
197.474	0.29478
197.853	0.29795
198.232	0.29902
198.611	0.29855
198.99	0.30166
199.369	0.30353
199.748	0.30368
200.127	0.30186
200.506	0.29748
200.885	0.29613
201.264	0.29298
201.643	0.28916
202.022	0.29037
202.401	0.28715
202.779	0.28999
203.158	0.2886
203.537	0.28958
203.915	0.28432
204.294	0.28633
204.673	0.28609
205.051	0.28413
205.43	0.28838
205.808	0.2873
206.187	0.29149
206.565	0.29164
206.943	0.2898
207.322	0.29378
207.7	0.2975
208.078	0.29846
208.456	0.30446
208.835	0.308
209.213	0.30919
209.591	0.31503
209.969	0.31136
210.347	0.31117
210.725	0.30846
211.103	0.31028
211.481	0.3096
211.859	0.3131
212.237	0.30967
212.614	0.31172
212.992	0.31374
213.37	0.30901
213.748	0.31082
214.125	0.30357
214.503	0.30446
214.881	0.30228
215.258	0.29826
215.636	0.29609
216.013	0.29286
216.391	0.28794
216.768	0.28763
217.145	0.28845
217.523	0.28544
217.9	0.29233
218.277	0.29519
218.655	0.29999
219.032	0.30131
219.409	0.30012
219.786	0.29529
220.163	0.29727
220.54	0.29834
220.917	0.30032
221.294	0.3011
221.671	0.30158
222.048	0.3076
222.425	0.30748
222.802	0.31051
223.179	0.31045
223.556	0.31112
223.932	0.31686
224.309	0.32261
224.686	0.31839
225.062	0.32036
225.439	0.32037
225.815	0.31713
226.192	0.31685
226.568	0.31474
226.945	0.31909
227.321	0.3229
227.698	0.32418
228.074	0.32184
228.45	0.31989
228.827	0.32397
229.203	0.33254
229.579	0.33567
229.955	0.33745
230.331	0.33933
230.707	0.34209
231.083	0.34727
231.46	0.34763
231.835	0.3471
232.211	0.3403
232.587	0.34625
232.963	0.34839
233.339	0.35066
233.715	0.35589
234.091	0.35478
234.466	0.35809
234.842	0.35527
235.218	0.34872
235.593	0.35062
235.969	0.35528
236.344	0.35889
236.72	0.36121
237.095	0.35273
237.471	0.35272
237.846	0.35153
238.222	0.35136
238.597	0.34987
238.972	0.34797
239.348	0.34445
239.723	0.34529
240.098	0.35116
240.473	0.34987
240.848	0.34978
241.223	0.35324
241.598	0.35147
241.973	0.35517
242.348	0.35355
242.723	0.35381
243.098	0.36298
243.473	0.36461
243.848	0.36655
244.223	0.36735
244.597	0.36272
244.972	0.36518
245.347	0.36725
245.721	0.36582
246.096	0.36787
246.47	0.37044
246.845	0.37169
247.219	0.37832
247.594	0.37704
247.968	0.38162
248.343	0.38218
248.717	0.38225
249.091	0.3796
249.466	0.38551
249.84	0.38721
250.214	0.38993
250.588	0.39344
250.962	0.39156
251.336	0.39521
251.71	0.39386
252.084	0.39593
252.458	0.40034
252.832	0.40282
253.206	0.40478
253.58	0.40782
253.954	0.41369
254.328	0.41422
254.702	0.41924
255.075	0.41941
255.449	0.42227
255.823	0.41831
256.196	0.42169
256.57	0.42574
256.943	0.42918
257.317	0.42624
257.69	0.42808
258.064	0.43086
258.437	0.43798
258.81	0.4403
259.184	0.44208
259.557	0.44711
259.93	0.44764
260.303	0.44866
260.677	0.44903
261.05	0.45042
261.423	0.4547
261.796	0.45665
262.169	0.45841
262.542	0.45517
262.915	0.45766
263.288	0.45927
263.661	0.46636
264.033	0.47039
264.406	0.46927
264.779	0.46991
265.152	0.47575
265.524	0.48047
265.897	0.4866
266.27	0.48544
266.642	0.48786
267.015	0.49134
267.387	0.4954
267.76	0.50104
268.132	0.50702
268.504	0.51055
268.877	0.51495
269.249	0.51779
269.621	0.5205
269.994	0.52459
270.366	0.53229
270.738	0.53641
271.11	0.54185
271.482	0.5428
271.854	0.54539
272.226	0.55041
272.598	0.55808
272.97	0.56272
273.342	0.56177
273.714	0.56332
274.086	0.56729
274.458	0.57655
274.829	0.58056
275.201	0.58555
275.573	0.5872
275.944	0.59243
276.316	0.60227
276.688	0.60996
277.059	0.62118
277.431	0.62617
277.802	0.63682
278.173	0.64929
278.545	0.67267
278.916	0.70812
279.287	0.75295
279.659	0.80904
280.03	0.8707
280.401	0.93508
280.772	0.998
281.143	1.05592
281.515	1.10815
281.886	1.14858
282.257	1.17931
282.628	1.20548
282.998	1.2255
283.369	1.24101
283.74	1.25239
284.111	1.25968
284.482	1.26622
284.853	1.2689
285.223	1.27128
285.594	1.27195
285.965	1.2721
286.335	1.27147
286.706	1.26878
287.076	1.26604
287.447	1.26297
287.817	1.25888
288.188	1.25472
288.558	1.24933
288.928	1.24353
289.299	1.23692
289.669	1.2305
290.039	1.22348
290.409	1.21625
290.779	1.20895
291.149	1.20117
291.52	1.19303
291.89	1.18534
292.26	1.17737
292.629	1.16958
292.999	1.16225
293.369	1.1552
293.739	1.14789
294.109	1.14051
294.479	1.13378
294.848	1.1269
295.218	1.12017
295.588	1.11353
295.957	1.10691
296.327	1.10072
296.696	1.09444
297.066	1.08775
297.435	1.08134
297.805	1.07518
298.174	1.06902
298.544	1.06233
298.913	1.05624
299.282	1.05039
299.651	1.04438
300.021	1.03832
300.39	1.033
300.759	1.0276
301.128	1.02208
301.497	1.01691
301.866	1.01213
302.235	1.00724
302.604	1.00259
302.973	0.9979
303.342	0.99341
303.71	0.98882
304.079	0.98398
304.448	0.97929
304.817	0.97459
305.185	0.96935
305.554	0.96402
305.923	0.95866
306.291	0.95341
306.66	0.94788
307.028	0.94259
307.397	0.93742
307.765	0.93248
308.133	0.92697
308.502	0.92187
308.87	0.91673
309.238	0.91208
309.606	0.9073
309.975	0.90266
310.343	0.89823
310.711	0.89431
311.079	0.89035
311.447	0.88651
311.815	0.88305
312.183	0.87961
312.551	0.87654
312.919	0.8737
313.286	0.87119
313.654	0.86882
314.022	0.86694
314.39	0.86534
314.757	0.86382
315.125	0.86227
315.492	0.86067
315.86	0.85937
316.228	0.85746
316.595	0.85584
316.962	0.85371
317.33	0.85154
317.697	0.84934
318.065	0.84669
318.432	0.84351
318.799	0.84035
319.166	0.83713
319.534	0.83383
319.901	0.83073
320.268	0.82795
320.635	0.82561
321.002	0.82315
321.369	0.82081
321.736	0.81835
322.103	0.81578
322.47	0.81294
322.836	0.81029
323.203	0.80773
323.57	0.80509
323.937	0.8028
324.303	0.80053
324.67	0.79826
325.037	0.79612
325.403	0.79405
325.77	0.79235
326.136	0.79075
326.503	0.78931
326.869	0.7877
327.235	0.78629
327.602	0.78472
327.968	0.78317
328.334	0.7813
328.7	0.77948
329.067	0.7777
329.433	0.77599
329.799	0.77426
330.165	0.77291
330.531	0.7715
330.897	0.77006
331.263	0.76892
331.629	0.76788
331.995	0.76662
332.36	0.76579
332.726	0.76498
333.092	0.76429
333.458	0.76369
333.823	0.76304
334.189	0.76231
334.554	0.76196
334.92	0.7614
335.286	0.76103
335.651	0.76046
336.016	0.76004
336.382	0.75949
336.747	0.75895
337.113	0.7585
337.478	0.75805
337.843	0.75753
338.208	0.75719
338.573	0.75663
338.939	0.75614
339.304	0.75564
339.669	0.75537
340.034	0.75494
340.399	0.75469
340.764	0.75436
341.129	0.75397
341.493	0.75381
341.858	0.75369
342.223	0.75338
342.588	0.75344
342.952	0.7532
343.317	0.75301
343.682	0.75287
344.046	0.75292
344.411	0.75289
344.775	0.75291
345.14	0.75277
345.504	0.75267
345.869	0.75231
346.233	0.7525
346.597	0.75225
346.962	0.75201
347.326	0.7518
347.69	0.75153
348.054	0.75133
348.418	0.75123
348.782	0.75104
349.146	0.75074
349.51	0.75051
349.874	0.75027
350.238	0.74995
350.602	0.74988
350.966	0.74981
351.33	0.74976
351.693	0.74948
352.057	0.74932
352.421	0.74928
352.784	0.74953
353.148	0.74976
353.512	0.75013
353.875	0.75022
354.239	0.75074
354.602	0.75142
354.966	0.75185
355.329	0.75248
355.692	0.75288
356.056	0.75343
356.419	0.75411
356.782	0.75491
357.145	0.75584
357.508	0.75671
357.871	0.75739
358.234	0.75823
358.597	0.75927
358.96	0.76027
359.323	0.76148
359.686	0.76275
360.049	0.76381
360.412	0.76488
360.775	0.76581
361.137	0.76705
361.5	0.76834
361.863	0.76938
362.225	0.77039
362.588	0.77178
362.951	0.77294
363.313	0.77423
363.675	0.77547
364.038	0.77678
364.4	0.77813
364.763	0.77947
365.125	0.78126
365.487	0.7829
365.849	0.78456
366.212	0.78594
366.574	0.78763
366.936	0.78912
367.298	0.7909
367.66	0.7926
368.022	0.79464
368.384	0.79682
368.746	0.79875
369.108	0.80086
369.469	0.80308
369.831	0.80535
370.193	0.80751
370.555	0.80994
370.916	0.81236
371.278	0.81474
371.64	0.8175
372.001	0.82012
372.363	0.82292
372.724	0.82526
373.086	0.82805
373.447	0.83074
373.808	0.83365
374.17	0.83655
374.531	0.83969
374.892	0.84259
375.253	0.84551
375.615	0.84854
375.976	0.85153
376.337	0.85472
376.698	0.8578
377.059	0.86115
377.42	0.86451
377.781	0.86813
378.141	0.87181
378.502	0.87554
378.863	0.87952
379.224	0.88331
379.585	0.88722
379.945	0.89097
380.306	0.89507
380.666	0.89906
381.027	0.9034
381.388	0.90766
381.748	0.91165
382.108	0.91606
382.469	0.92056
382.829	0.92542
383.19	0.93014
383.55	0.93522
383.91	0.9401
384.27	0.94521
384.63	0.95047
384.991	0.95546
385.351	0.96062
385.711	0.96566
386.071	0.97093
386.431	0.9764
386.791	0.98146
387.15	0.98687
387.51	0.99237
387.87	0.99793
388.23	1.0035
388.589	1.00929
388.949	1.01499
389.309	1.02085
389.668	1.02684
390.028	1.03263
390.387	1.03847
390.747	1.0443
391.106	1.05012
391.466	1.0563
391.825	1.06278
392.184	1.069
392.544	1.07521
392.903	1.08171
393.262	1.08822
393.621	1.0949
393.98	1.10152
394.339	1.10857
394.698	1.11583
395.057	1.12338
395.416	1.13079
395.775	1.13819
396.134	1.14498
396.493	1.15278
396.852	1.16022
397.211	1.16794
397.569	1.17558
397.928	1.18328
398.287	1.19151
398.645	1.19953
399.004	1.20718
399.362	1.21458
399.721	1.22265
400.079	1.23101
400.438	1.23862
400.796	1.24725
401.154	1.25595
401.512	1.26489
401.871	1.2743
402.229	1.28327
402.587	1.29187
402.945	1.30079
403.303	1.30992
403.661	1.31943
404.019	1.32835
404.377	1.3381
404.735	1.34678
405.093	1.35636
405.451	1.36533
405.808	1.37376
406.166	1.38256
406.524	1.39206
406.882	1.40155
407.239	1.41055
407.597	1.4198
407.954	1.4284
408.312	1.43707
408.669	1.44603
409.027	1.45496
409.384	1.46379
409.741	1.47265
410.099	1.48219
410.456	1.49094
410.813	1.49917
411.17	1.50822
411.527	1.51621
411.884	1.52438
412.242	1.53334
412.599	1.54141
412.956	1.55004
413.312	1.55784
413.669	1.56567
414.026	1.57273
414.383	1.5799
414.74	1.58675
415.096	1.59309
415.453	1.60201
415.81	1.60869
416.166	1.61562
416.523	1.62192
416.879	1.6283
417.236	1.63366
417.592	1.63895
417.949	1.64485
418.305	1.6523
418.661	1.65735
419.018	1.66212
419.374	1.66639
419.73	1.6701
420.086	1.6747
420.442	1.67758
420.798	1.68032
421.154	1.68293
421.51	1.6846
421.866	1.68564
422.222	1.68507
422.578	1.68649
422.934	1.68351
423.29	1.6826
423.646	1.68063
424.001	1.67933
424.357	1.67666
424.713	1.67655
425.068	1.67318
425.424	1.67008
425.779	1.66401
426.135	1.65831
426.49	1.65482
426.845	1.65048
427.201	1.64424
427.556	1.63521
427.911	1.62953
428.266	1.62427
428.622	1.61719
428.977	1.61081
429.332	1.60673
429.687	1.60421
430.042	1.6008
430.397	1.59996
430.752	1.5988
431.107	1.5971
431.461	1.59405
431.816	1.59003
432.171	1.58668
432.526	1.58397
432.88	1.58167
433.235	1.57936
433.59	1.57558
433.944	1.57107
434.299	1.56806
434.653	1.56511
435.008	1.56295
435.362	1.56004
435.716	1.55612
436.071	1.55152
436.425	1.54895
436.779	1.54393
437.133	1.53803
437.487	1.53197
437.841	1.52594
438.195	1.52041
438.549	1.51398
438.903	1.50741
439.257	1.50121
439.611	1.49589
439.965	1.48966
440.319	1.48136
440.673	1.4739
441.026	1.46599
441.38	1.46025
441.734	1.45013
442.087	1.44184
442.441	1.43486
442.794	1.42682
443.148	1.41817
443.501	1.41274
443.855	1.40555
444.208	1.40021
444.561	1.39447
444.915	1.38779
445.268	1.38168
445.621	1.37465
445.974	1.36771
446.327	1.36292
446.68	1.35748
447.033	1.35046
447.386	1.34427
447.739	1.33787
448.092	1.33155
448.445	1.32677
448.798	1.31893
449.15	1.314
449.503	1.30896
449.856	1.30203
450.209	1.29638
450.561	1.29178
450.914	1.28672
451.266	1.28136
451.619	1.27448
451.971	1.26802
452.323	1.26091
452.676	1.25336
453.028	1.24655
453.38	1.23951
453.733	1.23257
454.085	1.22612
454.437	1.21905
454.789	1.21116
455.141	1.20429
455.493	1.1977
455.845	1.19069
456.197	1.18321
456.549	1.1761
456.901	1.1696
457.253	1.1618
457.604	1.15375
457.956	1.14647
458.308	1.13807
458.659	1.13089
459.011	1.12411
459.362	1.11766
459.714	1.11032
460.065	1.10317
460.417	1.09536
460.768	1.08847
461.12	1.08138
461.471	1.07396
461.822	1.06549
462.173	1.05875
462.525	1.05149
462.876	1.04389
463.227	1.03667
463.578	1.03062
463.929	1.02407
464.28	1.01686
464.631	1.01115
464.982	1.00488
465.332	0.99751
465.683	0.99122
466.034	0.98451
466.385	0.97752
466.735	0.9706
467.086	0.96465
467.437	0.95923
467.787	0.95438
468.138	0.94843
468.488	0.9427
468.839	0.93672
469.189	0.93212
469.539	0.92728
469.89	0.92191
470.24	0.91641
470.59	0.91116
470.94	0.90571
471.29	0.90062
471.64	0.89567
471.99	0.8896
472.34	0.88434
472.69	0.87981
473.04	0.87503
473.39	0.87053
473.74	0.8658
474.09	0.86111
474.439	0.85609
474.789	0.85085
475.139	0.84564
475.488	0.84132
475.838	0.83594
476.188	0.83166
476.537	0.82659
476.886	0.82087
477.236	0.81615
477.585	0.81136
477.935	0.80703
478.284	0.80243
478.633	0.79763
478.982	0.79321
479.331	0.78939
479.68	0.78489
480.03	0.78047
480.379	0.7762
480.728	0.77199
481.076	0.76779
481.425	0.76354
481.774	0.75945
482.123	0.75587
482.472	0.75175
482.821	0.74809
483.169	0.74438
483.518	0.74021
483.866	0.73591
484.215	0.73246
484.563	0.72887
484.912	0.72534
485.26	0.72161
485.609	0.7177
485.957	0.71386
486.305	0.71005
486.654	0.70603
487.002	0.7025
487.35	0.69883
487.698	0.69488
488.046	0.69119
488.394	0.68761
488.742	0.68384
489.09	0.68028
489.438	0.67602
489.786	0.6727
490.134	0.66851
490.482	0.66498
490.829	0.66127
491.177	0.65812
491.525	0.65451
491.872	0.65102
492.22	0.64735
492.567	0.64366
492.915	0.6405
493.262	0.63713
493.61	0.63375
493.957	0.63054
494.304	0.62707
494.652	0.62381
494.999	0.62071
495.346	0.6171
495.693	0.61354
496.04	0.61042
496.387	0.60708
496.734	0.60397
497.081	0.60032
497.428	0.59687
497.775	0.5935
498.122	0.59051
498.469	0.5871
498.816	0.58382
499.162	0.58041
499.509	0.577
499.856	0.57375
500.202	0.57044
500.549	0.5674
500.895	0.56408
501.242	0.56046
501.588	0.55742
501.935	0.55406
502.281	0.55096
502.627	0.54806
502.973	0.5452
503.32	0.54222
503.666	0.53944
504.012	0.53669
504.358	0.53378
504.704	0.53129
505.05	0.52849
505.396	0.52551
505.742	0.52291
506.088	0.52031
506.433	0.51747
506.779	0.51485
507.125	0.51196
507.471	0.5091
507.816	0.50654
508.162	0.50379
508.507	0.50142
508.853	0.49884
509.198	0.4963
509.544	0.49367
509.889	0.49082
510.234	0.48806
510.58	0.48528
510.925	0.48274
511.27	0.48019
511.615	0.47779
511.96	0.47506
512.306	0.47257
512.651	0.47012
512.996	0.46759
513.341	0.46497
513.685	0.46256
514.03	0.45999
514.375	0.45772
514.72	0.45527
515.065	0.45247
515.409	0.45001
515.754	0.44752
516.099	0.44492
516.443	0.44242
516.788	0.43988
517.132	0.43768
517.476	0.43542
517.821	0.43306
518.165	0.43049
518.51	0.42772
518.854	0.42504
519.198	0.4226
519.542	0.42014
519.886	0.41763
520.23	0.41526
520.574	0.41312
520.918	0.41057
521.262	0.40814
521.606	0.40549
521.95	0.40318
522.294	0.40083
522.638	0.39859
522.981	0.39627
523.325	0.39386
523.669	0.39152
524.012	0.38925
524.356	0.38679
524.699	0.38448
525.043	0.38212
525.386	0.37967
525.73	0.37763
526.073	0.37543
526.416	0.37317
526.76	0.37094
527.103	0.36876
527.446	0.36625
527.789	0.36368
528.132	0.36145
528.475	0.35928
528.818	0.35724
529.161	0.35505
529.504	0.35293
529.847	0.35054
530.19	0.3483
530.532	0.34622
530.875	0.34412
531.218	0.34191
531.56	0.3398
531.903	0.33765
532.246	0.33575
532.588	0.33381
532.93	0.33173
533.273	0.32969
533.615	0.32773
533.958	0.32568
534.3	0.32361
534.642	0.32181
534.984	0.31993
535.326	0.31812
535.669	0.31619
536.011	0.31418
536.353	0.31228
536.695	0.31031
537.037	0.30853
537.378	0.30654
537.72	0.30461
538.062	0.30269
538.404	0.30098
538.746	0.29907
539.087	0.29713
539.429	0.29513
539.77	0.29337
540.112	0.29144
540.454	0.28975
540.795	0.2878
541.136	0.28592
541.478	0.28405
541.819	0.28211
542.16	0.28034
542.502	0.27856
542.843	0.27672
543.184	0.27484
543.525	0.27299
543.866	0.27134
544.207	0.26965
544.548	0.26795
544.889	0.26638
545.23	0.26476
545.571	0.26301
545.911	0.26145
546.252	0.25994
546.593	0.25832
546.934	0.25668
547.274	0.25509
547.615	0.25339
547.955	0.25202
548.296	0.25064
548.636	0.24916
548.977	0.24757
549.317	0.24592
549.657	0.24448
549.997	0.24287
550.338	0.24151
550.678	0.24003
551.018	0.23859
551.358	0.23712
551.698	0.23585
552.038	0.23435
552.378	0.23286
552.718	0.23133
553.058	0.2298
553.398	0.22837
553.737	0.22697
554.077	0.22554
554.417	0.22428
554.756	0.22283
555.096	0.22141
555.435	0.2199
555.775	0.21842
556.114	0.21725
556.454	0.21615
556.793	0.21459
557.133	0.21339
557.472	0.21216
557.811	0.21079
558.15	0.20946
558.489	0.20814
558.829	0.20683
559.168	0.20554
559.507	0.20427
559.846	0.20315
560.184	0.20216
560.523	0.20102
560.862	0.19996
561.201	0.19883
561.54	0.19769
561.878	0.19651
562.217	0.19526
562.556	0.1942
562.894	0.1933
563.233	0.19232
563.571	0.19112
563.91	0.19018
564.248	0.18925
564.586	0.18811
564.925	0.18707
565.263	0.1861
565.601	0.18513
565.939	0.18408
566.277	0.18324
566.616	0.18234
566.954	0.18136
567.292	0.18013
567.63	0.17909
567.967	0.17795
568.305	0.17694
568.643	0.17593
568.981	0.17488
569.319	0.17408
569.656	0.17298
569.994	0.17187
570.331	0.17083
570.669	0.16983
571.006	0.16871
571.344	0.16767
571.681	0.16662
572.019	0.1657
572.356	0.16474
572.693	0.16378
573.03	0.16281
573.368	0.16179
573.705	0.16096
574.042	0.15996
574.379	0.15914
574.716	0.1582
575.053	0.15736
575.39	0.15639
575.727	0.1555
576.063	0.15474
576.4	0.15363
576.737	0.15266
577.074	0.15184
577.41	0.15084
577.747	0.15
578.083	0.14922
578.42	0.14849
578.756	0.14772
579.093	0.14695
579.429	0.1461
579.766	0.14527
580.102	0.14446
580.438	0.14362
580.774	0.14277
581.11	0.14201
581.446	0.14126
581.782	0.14054
582.119	0.13972
582.454	0.13894
582.79	0.13817
583.126	0.13729
583.462	0.13668
583.798	0.13599
584.134	0.13516
584.469	0.13443
584.805	0.13364
585.141	0.13301
585.476	0.13219
585.812	0.13154
586.147	0.13081
586.482	0.13
586.818	0.1293
587.153	0.12861
587.488	0.12798
587.824	0.1272
588.159	0.12652
588.494	0.12578
588.829	0.12511
589.164	0.12447
589.499	0.12374
589.834	0.12299
590.169	0.12255
590.504	0.12191
590.839	0.12135
591.174	0.12074
591.508	0.12024
591.843	0.11955
592.178	0.11878
592.512	0.11814
592.847	0.11746
593.181	0.11674
593.516	0.11622
593.85	0.11566
594.185	0.11508
594.519	0.11438
594.853	0.11373
595.187	0.11314
595.522	0.1125
595.856	0.11179
596.19	0.1113
596.524	0.11072
596.858	0.1101
597.192	0.10938
597.526	0.10874
597.86	0.10812
598.194	0.10751
598.527	0.1068
598.861	0.1063
