Data from 1 min_Absorbance_12-19-09-203.txt Node
Date: Thu Feb 02 12:19:09 EST 2023
User: UV-vis
Spectrometer: FLMS04918
Trigger mode: 0
Integration Time (sec): 1.850000E-3
Scans to average: 10
Electric dark correction enabled: true
Nonlinearity correction enabled: false
Boxcar width: 10
XAxis mode: Wavelengths
Number of Pixels in Spectrum: 2048
>>>>>Begin Spectral Data<<<<<
179.23	-0
179.611	-0.8642
179.992	-1.35211
180.373	-0
180.754	-0
181.134	-0
181.515	-0
181.896	-0
182.276	-0
182.657	-0
183.038	-0
183.418	-0
183.799	1.71257
184.179	0.51192
184.56	0.35717
184.94	0.33765
185.32	0.3206
185.701	0.34117
186.081	0.33615
186.461	0.3234
186.842	0.32084
187.222	0.31424
187.602	0.31574
187.982	0.30011
188.362	0.30822
188.742	0.30015
189.122	0.29459
189.502	0.29276
189.882	0.30075
190.262	0.29975
190.642	0.30457
191.022	0.29873
191.402	0.29562
191.781	0.29255
192.161	0.29276
192.541	0.29015
192.92	0.2928
193.3	0.29379
193.68	0.2894
194.059	0.28947
194.439	0.28991
194.818	0.28841
195.198	0.2902
195.577	0.28917
195.957	0.29925
196.336	0.29789
196.715	0.29831
197.094	0.29992
197.474	0.30106
197.853	0.29882
198.232	0.30067
198.611	0.29792
198.99	0.3004
199.369	0.30307
199.748	0.30612
200.127	0.30626
200.506	0.30643
200.885	0.30483
201.264	0.3067
201.643	0.30598
202.022	0.30822
202.401	0.30835
202.779	0.30949
203.158	0.31072
203.537	0.31251
203.915	0.30826
204.294	0.30572
204.673	0.30917
205.051	0.31178
205.43	0.31244
205.808	0.30973
206.187	0.31106
206.565	0.31108
206.943	0.31202
207.322	0.31286
207.7	0.31363
208.078	0.31458
208.456	0.31742
208.835	0.32018
209.213	0.31813
209.591	0.32332
209.969	0.31991
210.347	0.31725
210.725	0.31974
211.103	0.31904
211.481	0.32398
211.859	0.3261
212.237	0.32566
212.614	0.32243
212.992	0.31964
213.37	0.31584
213.748	0.32181
214.125	0.31821
214.503	0.32436
214.881	0.32352
215.258	0.32379
215.636	0.32195
216.013	0.32367
216.391	0.32765
216.768	0.32878
217.145	0.33489
217.523	0.32963
217.9	0.33098
218.277	0.335
218.655	0.3354
219.032	0.33948
219.409	0.33469
219.786	0.33409
220.163	0.33502
220.54	0.33786
220.917	0.34038
221.294	0.34383
221.671	0.345
222.048	0.34987
222.425	0.34606
222.802	0.34444
223.179	0.34666
223.556	0.34891
223.932	0.34816
224.309	0.34263
224.686	0.34
225.062	0.33927
225.439	0.34522
225.815	0.34591
226.192	0.34648
226.568	0.34623
226.945	0.34626
227.321	0.3474
227.698	0.34686
228.074	0.34924
228.45	0.35042
228.827	0.35486
229.203	0.36077
229.579	0.36002
229.955	0.3592
230.331	0.35798
230.707	0.36431
231.083	0.36596
231.46	0.36525
231.835	0.36668
232.211	0.36813
232.587	0.36876
232.963	0.37092
233.339	0.37175
233.715	0.37575
234.091	0.38016
234.466	0.3815
234.842	0.38202
235.218	0.38385
235.593	0.38062
235.969	0.38328
236.344	0.38356
236.72	0.38449
237.095	0.38135
237.471	0.38313
237.846	0.38335
238.222	0.38347
238.597	0.38046
238.972	0.3788
239.348	0.37909
239.723	0.37854
240.098	0.3796
240.473	0.38276
240.848	0.38019
241.223	0.38169
241.598	0.38145
241.973	0.37866
242.348	0.37847
242.723	0.37621
243.098	0.37532
243.473	0.37868
243.848	0.37633
244.223	0.37932
244.597	0.37748
244.972	0.37567
245.347	0.37535
245.721	0.37908
246.096	0.38137
246.47	0.38893
246.845	0.39079
247.219	0.39663
247.594	0.3952
247.968	0.40218
248.343	0.40039
248.717	0.40626
249.091	0.40166
249.466	0.4056
249.84	0.4075
250.214	0.40664
250.588	0.41025
250.962	0.41443
251.336	0.42242
251.71	0.42599
252.084	0.42628
252.458	0.4322
252.832	0.44054
253.206	0.44416
253.58	0.4436
253.954	0.44597
254.328	0.44111
254.702	0.4426
255.075	0.43691
255.449	0.43894
255.823	0.43361
256.196	0.4429
256.57	0.44121
256.943	0.44744
257.317	0.44574
257.69	0.44804
258.064	0.4507
258.437	0.45161
258.81	0.45259
259.184	0.44873
259.557	0.45347
259.93	0.45976
260.303	0.4589
260.677	0.45492
261.05	0.45499
261.423	0.45603
261.796	0.45972
262.169	0.46138
262.542	0.46081
262.915	0.46946
263.288	0.47074
263.661	0.4747
264.033	0.47085
264.406	0.4727
264.779	0.47439
265.152	0.47767
265.524	0.47903
265.897	0.48038
266.27	0.48294
266.642	0.48439
267.015	0.49016
267.387	0.4916
267.76	0.4881
268.132	0.49077
268.504	0.49392
268.877	0.49619
269.249	0.49857
269.621	0.50061
269.994	0.50673
270.366	0.51207
270.738	0.51111
271.11	0.51625
271.482	0.5203
271.854	0.52521
272.226	0.5274
272.598	0.52867
272.97	0.53239
273.342	0.53346
273.714	0.53586
274.086	0.5407
274.458	0.54582
274.829	0.54844
275.201	0.55331
275.573	0.55822
275.944	0.56445
276.316	0.57033
276.688	0.57967
277.059	0.58854
277.431	0.59728
277.802	0.60361
278.173	0.61661
278.545	0.63832
278.916	0.6682
279.287	0.70963
279.659	0.75673
280.03	0.81372
280.401	0.87111
280.772	0.92148
281.143	0.96728
281.515	1.00642
281.886	1.03733
282.257	1.06115
282.628	1.07927
282.998	1.09311
283.369	1.10325
283.74	1.11029
284.111	1.11575
284.482	1.11894
284.853	1.12106
285.223	1.12142
285.594	1.12136
285.965	1.12014
286.335	1.11806
286.706	1.11526
287.076	1.11164
287.447	1.10836
287.817	1.10409
288.188	1.0995
288.558	1.09441
288.928	1.08893
289.299	1.08303
289.669	1.07673
290.039	1.07013
290.409	1.06338
290.779	1.05657
291.149	1.04922
291.52	1.04179
291.89	1.03441
292.26	1.02691
292.629	1.01938
292.999	1.01231
293.369	1.00486
293.739	0.99793
294.109	0.99097
294.479	0.98415
294.848	0.97767
295.218	0.97102
295.588	0.96455
295.957	0.95796
296.327	0.95198
296.696	0.9457
297.066	0.93917
297.435	0.93296
297.805	0.9264
298.174	0.92008
298.544	0.91366
298.913	0.90761
299.282	0.90154
299.651	0.89553
300.021	0.88942
300.39	0.88375
300.759	0.87813
301.128	0.87278
301.497	0.86751
301.866	0.8628
302.235	0.85798
302.604	0.8532
302.973	0.84842
303.342	0.84354
303.71	0.83878
304.079	0.83373
304.448	0.8288
304.817	0.8239
305.185	0.81838
305.554	0.81309
305.923	0.80732
306.291	0.80161
306.66	0.79587
307.028	0.79058
307.397	0.78494
307.765	0.78003
308.133	0.77445
308.502	0.76917
308.87	0.76406
309.238	0.75905
309.606	0.7543
309.975	0.7498
310.343	0.74555
310.711	0.74147
311.079	0.73763
311.447	0.73384
311.815	0.73035
312.183	0.72713
312.551	0.72395
312.919	0.7215
313.286	0.7193
313.654	0.71756
314.022	0.71613
314.39	0.71489
314.757	0.71351
315.125	0.71253
315.492	0.71122
315.86	0.7102
316.228	0.70892
316.595	0.70774
316.962	0.70629
317.33	0.70461
317.697	0.70282
318.065	0.70075
318.432	0.69856
318.799	0.69621
319.166	0.69401
319.534	0.69152
319.901	0.68907
320.268	0.68727
320.635	0.68542
321.002	0.68377
321.369	0.68206
321.736	0.68033
322.103	0.67853
322.47	0.67677
322.836	0.67511
323.203	0.67357
323.57	0.67208
323.937	0.67078
324.303	0.66942
324.67	0.66841
325.037	0.66719
325.403	0.66646
325.77	0.66571
326.136	0.66526
326.503	0.66498
326.869	0.66459
327.235	0.6644
327.602	0.66438
327.968	0.66413
328.334	0.66368
328.7	0.66302
329.067	0.66258
329.433	0.66206
329.799	0.66167
330.165	0.66143
330.531	0.66109
330.897	0.66093
331.263	0.66104
331.629	0.66134
331.995	0.66179
332.36	0.66224
332.726	0.66311
333.092	0.66366
333.458	0.66458
333.823	0.66544
334.189	0.66629
334.554	0.66731
334.92	0.66836
335.286	0.66934
335.651	0.67039
336.016	0.67159
336.382	0.67289
336.747	0.67417
337.113	0.67546
337.478	0.67671
337.843	0.67806
338.208	0.67957
338.573	0.68102
338.939	0.68241
339.304	0.68386
339.669	0.68538
340.034	0.68681
340.399	0.68821
340.764	0.6898
341.129	0.6913
341.493	0.69296
341.858	0.69471
342.223	0.69667
342.588	0.69858
342.952	0.7004
343.317	0.7021
343.682	0.7039
344.046	0.70575
344.411	0.70756
344.775	0.70946
345.14	0.71148
345.504	0.71352
345.869	0.71549
346.233	0.71753
346.597	0.71947
346.962	0.72142
347.326	0.72332
347.69	0.72538
348.054	0.72737
348.418	0.72945
348.782	0.73135
349.146	0.73337
349.51	0.7353
349.874	0.73716
350.238	0.73929
350.602	0.74162
350.966	0.74408
351.33	0.74645
351.693	0.74878
352.057	0.751
352.421	0.75353
352.784	0.75605
353.148	0.75847
353.512	0.76131
353.875	0.764
354.239	0.76701
354.602	0.7698
354.966	0.77257
355.329	0.77575
355.692	0.77883
356.056	0.78186
356.419	0.7854
356.782	0.78864
357.145	0.79223
357.508	0.79581
357.871	0.79946
358.234	0.80294
358.597	0.80641
358.96	0.8101
359.323	0.81391
359.686	0.81808
360.049	0.82195
360.412	0.82604
360.775	0.83043
361.137	0.8343
361.5	0.83851
361.863	0.8428
362.225	0.84713
362.588	0.85159
362.951	0.85585
363.313	0.86044
363.675	0.8651
364.038	0.8695
364.4	0.87445
364.763	0.8791
365.125	0.88389
365.487	0.88876
365.849	0.89355
366.212	0.89847
366.574	0.90327
366.936	0.90814
367.298	0.91313
367.66	0.91848
368.022	0.92377
368.384	0.92901
368.746	0.93461
369.108	0.94029
369.469	0.9459
369.831	0.95199
370.193	0.9581
370.555	0.9643
370.916	0.97042
371.278	0.97686
371.64	0.98361
372.001	0.99009
372.363	0.99674
372.724	1.0032
373.086	1.00951
373.447	1.01611
373.808	1.02281
374.17	1.02992
374.531	1.03711
374.892	1.04372
375.253	1.05064
375.615	1.05791
375.976	1.06494
376.337	1.07209
376.698	1.0792
377.059	1.08665
377.42	1.09376
377.781	1.1015
378.141	1.10923
378.502	1.11722
378.863	1.12525
379.224	1.13339
379.585	1.14151
379.945	1.15019
380.306	1.15883
380.666	1.1673
381.027	1.176
381.388	1.18472
381.748	1.19324
382.108	1.20195
382.469	1.21136
382.829	1.22093
383.19	1.23066
383.55	1.24059
383.91	1.25053
384.27	1.26083
384.63	1.27103
384.991	1.28145
385.351	1.29148
385.711	1.30161
386.071	1.31203
386.431	1.32272
386.791	1.33278
387.15	1.3431
387.51	1.35355
387.87	1.36418
388.23	1.37517
388.589	1.38682
388.949	1.39855
389.309	1.41075
389.668	1.42241
390.028	1.43427
390.387	1.44544
390.747	1.45673
391.106	1.46865
391.466	1.48058
391.825	1.4929
392.184	1.50469
392.544	1.51738
392.903	1.52923
393.262	1.5417
393.621	1.55422
393.98	1.56699
394.339	1.57984
394.698	1.59394
395.057	1.60716
395.416	1.6208
395.775	1.63411
396.134	1.64715
396.493	1.66039
396.852	1.67292
397.211	1.6872
397.569	1.70089
397.928	1.7148
398.287	1.72765
398.645	1.74177
399.004	1.75641
399.362	1.76951
399.721	1.78368
400.079	1.79696
400.438	1.81163
400.796	1.82677
401.154	1.84191
401.512	1.85731
401.871	1.87444
402.229	1.88973
402.587	1.90482
402.945	1.92101
403.303	1.93741
403.661	1.95189
404.019	1.9682
404.377	1.98414
404.735	1.9994
405.093	2.01406
405.451	2.02965
405.808	2.04635
406.166	2.06041
406.524	2.07493
406.882	2.09094
407.239	2.10736
407.597	2.12381
407.954	2.13826
408.312	2.14969
408.669	2.16437
409.027	2.17942
409.384	2.18966
409.741	2.20165
410.099	2.21551
410.456	2.22382
410.813	2.23508
411.17	2.2479
411.527	2.25684
411.884	2.26704
412.242	2.27577
412.599	2.28754
412.956	2.29688
413.312	2.30459
413.669	2.312
414.026	2.31834
414.383	2.3217
414.74	2.3251
415.096	2.33088
415.453	2.33427
415.81	2.33644
416.166	2.33901
416.523	2.33685
416.879	2.33886
417.236	2.33834
417.592	2.33768
417.949	2.34426
418.305	2.3467
418.661	2.35202
419.018	2.35202
419.374	2.34506
419.73	2.34165
420.086	2.34015
420.442	2.33441
420.798	2.32926
421.154	2.3182
421.51	2.30938
421.866	2.2995
422.222	2.28906
422.578	2.27795
422.934	2.2679
423.29	2.25915
423.646	2.24383
424.001	2.23163
424.357	2.22062
424.713	2.20547
425.068	2.1916
425.424	2.17454
425.779	2.15903
426.135	2.1358
426.49	2.1155
426.845	2.10491
427.201	2.08685
427.556	2.06276
427.911	2.04632
428.266	2.03241
428.622	2.01983
428.977	2.0058
429.332	1.99999
429.687	1.98787
430.042	1.9791
430.397	1.97739
430.752	1.97629
431.107	1.97423
431.461	1.97001
431.816	1.96166
432.171	1.9565
432.526	1.95456
432.88	1.95246
433.235	1.94443
433.59	1.93826
433.944	1.93507
434.299	1.92967
434.653	1.92573
435.008	1.92484
435.362	1.9198
435.716	1.91371
436.071	1.90933
436.425	1.90448
436.779	1.89826
437.133	1.8921
437.487	1.88179
437.841	1.86675
438.195	1.85348
438.549	1.84106
438.903	1.82864
439.257	1.82227
439.611	1.81517
439.965	1.79994
440.319	1.78796
440.673	1.77542
441.026	1.76666
441.38	1.75724
441.734	1.74282
442.087	1.72876
442.441	1.71326
442.794	1.70269
443.148	1.69011
443.501	1.68002
443.855	1.67086
444.208	1.65831
444.561	1.64284
444.915	1.63161
445.268	1.62339
445.621	1.61371
445.974	1.60294
446.327	1.5942
446.68	1.58465
447.033	1.5745
447.386	1.56537
447.739	1.55248
448.092	1.54464
448.445	1.53288
448.798	1.51886
449.15	1.50732
449.503	1.49974
449.856	1.48988
450.209	1.47771
450.561	1.46592
450.914	1.45408
451.266	1.44192
451.619	1.43012
451.971	1.42021
452.323	1.40779
452.676	1.39558
453.028	1.38378
453.38	1.3713
453.733	1.35885
454.085	1.34424
454.437	1.33142
454.789	1.31858
455.141	1.30564
455.493	1.29265
455.845	1.27979
456.197	1.26781
456.549	1.2568
456.901	1.24449
457.253	1.23168
457.604	1.22001
457.956	1.20847
458.308	1.19727
458.659	1.1859
459.011	1.17425
459.362	1.16448
459.714	1.15343
460.065	1.14256
460.417	1.13149
460.768	1.12117
461.12	1.11041
461.471	1.09985
461.822	1.08989
462.173	1.0791
462.525	1.06888
462.876	1.05876
463.227	1.04897
463.578	1.03883
463.929	1.02868
464.28	1.0182
464.631	1.00905
464.982	1.00012
465.332	0.99096
465.683	0.9818
466.034	0.97292
466.385	0.96392
466.735	0.95546
467.086	0.947
467.437	0.9383
467.787	0.93072
468.138	0.92319
468.488	0.9154
468.839	0.90806
469.189	0.90025
469.539	0.8935
469.89	0.88669
470.24	0.87889
470.59	0.8721
470.94	0.86523
471.29	0.85861
471.64	0.85244
471.99	0.84535
472.34	0.8383
472.69	0.83166
473.04	0.82466
473.39	0.81863
473.74	0.81269
474.09	0.80644
474.439	0.80061
474.789	0.79502
475.139	0.78906
475.488	0.7831
475.838	0.77737
476.188	0.77215
476.537	0.76651
476.886	0.76098
477.236	0.75516
477.585	0.75007
477.935	0.74496
478.284	0.73993
478.633	0.73488
478.982	0.72926
479.331	0.72487
479.68	0.72024
480.03	0.71604
480.379	0.71184
480.728	0.70767
481.076	0.70363
481.425	0.69922
481.774	0.69497
482.123	0.69078
482.472	0.6863
482.821	0.6822
483.169	0.67816
483.518	0.67414
483.866	0.67035
484.215	0.66663
484.563	0.66308
484.912	0.65944
485.26	0.65541
485.609	0.65179
485.957	0.64845
486.305	0.64552
486.654	0.64181
487.002	0.63827
487.35	0.63513
487.698	0.63185
488.046	0.62852
488.394	0.6251
488.742	0.62168
489.09	0.61828
489.438	0.61533
489.786	0.61247
490.134	0.60946
490.482	0.60654
490.829	0.60328
491.177	0.60031
491.525	0.59729
491.872	0.59432
492.22	0.59168
492.567	0.58905
492.915	0.5867
493.262	0.58386
493.61	0.58096
493.957	0.57865
494.304	0.57627
494.652	0.57347
494.999	0.57112
495.346	0.56836
495.693	0.56602
496.04	0.56384
496.387	0.56195
496.734	0.55942
497.081	0.5574
497.428	0.55496
497.775	0.55294
498.122	0.55112
498.469	0.54899
498.816	0.54699
499.162	0.54534
499.509	0.54336
499.856	0.54155
500.202	0.5395
500.549	0.53781
500.895	0.53602
501.242	0.53418
501.588	0.53249
501.935	0.5308
502.281	0.52925
502.627	0.52807
502.973	0.52661
503.32	0.52513
503.666	0.52369
504.012	0.5223
504.358	0.52057
504.704	0.51934
505.05	0.51799
505.396	0.51659
505.742	0.51529
506.088	0.51398
506.433	0.51245
506.779	0.51115
507.125	0.5101
507.471	0.50888
507.816	0.50787
508.162	0.50704
508.507	0.50588
508.853	0.50489
509.198	0.504
509.544	0.50273
509.889	0.50139
510.234	0.50028
510.58	0.49927
510.925	0.49825
511.27	0.49705
511.615	0.49601
511.96	0.49521
512.306	0.4942
512.651	0.4933
512.996	0.49234
513.341	0.49159
513.685	0.49064
514.03	0.48948
514.375	0.48837
514.72	0.48743
515.065	0.48633
515.409	0.48521
515.754	0.48409
516.099	0.48283
516.443	0.48159
516.788	0.48044
517.132	0.47936
517.476	0.47832
517.821	0.47703
518.165	0.47598
518.51	0.4748
518.854	0.47379
519.198	0.47232
519.542	0.47111
519.886	0.46986
520.23	0.46847
520.574	0.4671
520.918	0.4658
521.262	0.4647
521.606	0.46327
521.95	0.46207
522.294	0.46056
522.638	0.45917
522.981	0.45794
523.325	0.45663
523.669	0.45501
524.012	0.45352
524.356	0.45202
524.699	0.45033
525.043	0.44884
525.386	0.44697
525.73	0.44536
526.073	0.44339
526.416	0.44183
526.76	0.43994
527.103	0.4381
527.446	0.43648
527.789	0.43449
528.132	0.43269
528.475	0.43072
528.818	0.42887
529.161	0.42672
529.504	0.42491
529.847	0.42266
530.19	0.42045
530.532	0.41843
530.875	0.4164
531.218	0.41415
531.56	0.41204
531.903	0.40976
532.246	0.40762
532.588	0.4055
532.93	0.40326
533.273	0.40113
533.615	0.39879
533.958	0.39651
534.3	0.39423
534.642	0.3919
534.984	0.38974
535.326	0.38759
535.669	0.38514
536.011	0.38281
536.353	0.38048
536.695	0.37792
537.037	0.37582
537.378	0.37336
537.72	0.3709
538.062	0.36859
538.404	0.36624
538.746	0.36381
539.087	0.36141
539.429	0.35885
539.77	0.35638
540.112	0.35396
540.454	0.35161
540.795	0.34923
541.136	0.34673
541.478	0.3443
541.819	0.34192
542.16	0.33948
542.502	0.33701
542.843	0.33458
543.184	0.33209
543.525	0.32966
543.866	0.32717
544.207	0.32462
544.548	0.32235
544.889	0.31998
545.23	0.31776
545.571	0.31543
545.911	0.31315
546.252	0.31094
546.593	0.30867
546.934	0.3066
547.274	0.30435
547.615	0.30208
547.955	0.29985
548.296	0.29777
548.636	0.29556
548.977	0.29331
549.317	0.29113
549.657	0.28888
549.997	0.28701
550.338	0.28491
550.678	0.28287
551.018	0.28088
551.358	0.27902
551.698	0.27712
552.038	0.27524
552.378	0.27319
552.718	0.27136
553.058	0.26939
553.398	0.26744
553.737	0.26555
554.077	0.26339
554.417	0.26153
554.756	0.2596
555.096	0.25781
555.435	0.25578
555.775	0.25402
556.114	0.25227
556.454	0.25036
556.793	0.24855
557.133	0.24678
557.472	0.2452
557.811	0.2435
558.15	0.24198
558.489	0.2401
558.829	0.23819
559.168	0.23639
559.507	0.23476
559.846	0.23314
560.184	0.23162
560.523	0.23008
560.862	0.22863
561.201	0.22716
561.54	0.22577
561.878	0.22431
562.217	0.22277
562.556	0.2216
562.894	0.22026
563.233	0.21898
563.571	0.21763
563.91	0.21625
564.248	0.21491
564.586	0.21346
564.925	0.21216
565.263	0.21074
565.601	0.20956
565.939	0.20848
566.277	0.20726
566.616	0.20591
566.954	0.20467
567.292	0.20334
567.63	0.20214
567.967	0.20083
568.305	0.19963
568.643	0.19831
568.981	0.19709
569.319	0.19597
569.656	0.19467
569.994	0.19342
570.331	0.19208
570.669	0.19102
571.006	0.18998
571.344	0.18873
571.681	0.18762
572.019	0.1864
572.356	0.18523
572.693	0.18415
573.03	0.18294
573.368	0.18184
573.705	0.18096
574.042	0.17976
574.379	0.17868
574.716	0.17761
575.053	0.17652
575.39	0.17531
575.727	0.17433
576.063	0.17336
576.4	0.17234
576.737	0.17128
577.074	0.17022
577.41	0.16921
577.747	0.1683
578.083	0.1673
578.42	0.16647
578.756	0.16548
579.093	0.16463
579.429	0.16369
579.766	0.16281
580.102	0.16208
580.438	0.16124
580.774	0.16024
581.11	0.15954
581.446	0.15875
581.782	0.1579
582.119	0.15718
582.454	0.15644
582.79	0.15564
583.126	0.1548
583.462	0.15403
583.798	0.15333
584.134	0.15252
584.469	0.15183
584.805	0.15097
585.141	0.15022
585.476	0.14929
585.812	0.14847
586.147	0.14769
586.482	0.14692
586.818	0.14619
587.153	0.14534
587.488	0.14462
587.824	0.14389
588.159	0.14318
588.494	0.14244
588.829	0.14171
589.164	0.14113
589.499	0.14058
589.834	0.13994
590.169	0.13938
590.504	0.13871
590.839	0.13811
591.174	0.13754
591.508	0.13691
591.843	0.13622
592.178	0.13549
592.512	0.13488
592.847	0.13445
593.181	0.13385
593.516	0.1334
593.85	0.13271
594.185	0.13219
594.519	0.13156
594.853	0.13101
595.187	0.13047
595.522	0.1299
595.856	0.12948
596.19	0.12886
596.524	0.12827
596.858	0.12777
597.192	0.12721
597.526	0.12668
597.86	0.12605
598.194	0.12548
598.527	0.12482
598.861	0.12428
599.195	0.12377
599.528	0.12331
