Data from 5 min_Absorbance_12-32-29-956.txt Node
Date: Thu Feb 02 12:32:29 EST 2023
User: UV-vis
Spectrometer: FLMS04918
Trigger mode: 0
Integration Time (sec): 1.850000E-3
Scans to average: 10
Electric dark correction enabled: true
Nonlinearity correction enabled: false
Boxcar width: 10
XAxis mode: Wavelengths
Number of Pixels in Spectrum: 2048
>>>>>Begin Spectral Data<<<<<
179.23	-0
179.611	-1.2185
179.992	-1.7747
180.373	-0
180.754	-0
181.134	-0
181.515	-0
181.896	-0
182.276	-0
182.657	-0
183.038	-0
183.418	-0
183.799	-0
184.179	-0.16496
184.56	0.20848
184.94	0.27752
185.32	0.28982
185.701	0.26844
186.081	0.28292
186.461	0.30438
186.842	0.31314
187.222	0.32055
187.602	0.32052
187.982	0.3071
188.362	0.31706
188.742	0.31224
189.122	0.30746
189.502	0.3019
189.882	0.30252
190.262	0.29731
190.642	0.30733
191.022	0.31324
191.402	0.3151
191.781	0.31773
192.161	0.31977
192.541	0.3199
192.92	0.32312
193.3	0.32402
193.68	0.32754
194.059	0.32528
194.439	0.32716
194.818	0.32589
195.198	0.32485
195.577	0.33056
195.957	0.33712
196.336	0.33686
196.715	0.33501
197.094	0.33513
197.474	0.34067
197.853	0.34222
198.232	0.34805
198.611	0.35041
198.99	0.34987
199.369	0.35277
199.748	0.35399
200.127	0.35232
200.506	0.35501
200.885	0.35379
201.264	0.35926
201.643	0.35975
202.022	0.35705
202.401	0.35886
202.779	0.36144
203.158	0.36051
203.537	0.3584
203.915	0.35656
204.294	0.35116
204.673	0.3567
205.051	0.36051
205.43	0.36013
205.808	0.35809
206.187	0.35707
206.565	0.35577
206.943	0.35538
207.322	0.35427
207.7	0.35115
208.078	0.35198
208.456	0.35297
208.835	0.35512
209.213	0.35295
209.591	0.35926
209.969	0.35868
210.347	0.35354
210.725	0.35317
211.103	0.35375
211.481	0.3554
211.859	0.36011
212.237	0.35824
212.614	0.35706
212.992	0.35562
213.37	0.35284
213.748	0.35697
214.125	0.35677
214.503	0.36075
214.881	0.36052
215.258	0.36251
215.636	0.36378
216.013	0.36437
216.391	0.36299
216.768	0.36438
217.145	0.36123
217.523	0.35576
217.9	0.36196
218.277	0.36655
218.655	0.36391
219.032	0.36974
219.409	0.36811
219.786	0.36311
220.163	0.36706
220.54	0.36942
220.917	0.36731
221.294	0.36944
221.671	0.37042
222.048	0.3705
222.425	0.36621
222.802	0.36545
223.179	0.36527
223.556	0.36379
223.932	0.36679
224.309	0.36879
224.686	0.36648
225.062	0.36963
225.439	0.37481
225.815	0.3721
226.192	0.36963
226.568	0.37262
226.945	0.368
227.321	0.36582
227.698	0.36718
228.074	0.3679
228.45	0.3665
228.827	0.37566
229.203	0.38257
229.579	0.38235
229.955	0.38584
230.331	0.389
230.707	0.38795
231.083	0.38979
231.46	0.39116
231.835	0.39094
232.211	0.38857
232.587	0.39171
232.963	0.39345
233.339	0.39386
233.715	0.39814
234.091	0.39979
234.466	0.40293
234.842	0.40588
235.218	0.41015
235.593	0.40978
235.969	0.41431
236.344	0.41574
236.72	0.41545
237.095	0.41185
237.471	0.41173
237.846	0.41074
238.222	0.41114
238.597	0.41485
238.972	0.41807
239.348	0.41631
239.723	0.41957
240.098	0.42429
240.473	0.42425
240.848	0.42088
241.223	0.42015
241.598	0.4193
241.973	0.42229
242.348	0.42068
242.723	0.424
243.098	0.42622
243.473	0.42992
243.848	0.43049
244.223	0.42956
244.597	0.42515
244.972	0.4245
245.347	0.42776
245.721	0.42876
246.096	0.43349
246.47	0.4359
246.845	0.43356
247.219	0.4405
247.594	0.43585
247.968	0.43782
248.343	0.4366
248.717	0.44223
249.091	0.44318
249.466	0.44881
249.84	0.44845
250.214	0.44955
250.588	0.45057
250.962	0.45159
251.336	0.45786
251.71	0.45718
252.084	0.46228
252.458	0.46907
252.832	0.48112
253.206	0.48944
253.58	0.49133
253.954	0.48981
254.328	0.49051
254.702	0.49268
255.075	0.49228
255.449	0.49636
255.823	0.49482
256.196	0.49978
256.57	0.50037
256.943	0.5013
257.317	0.50265
257.69	0.50604
258.064	0.50914
258.437	0.51405
258.81	0.51181
259.184	0.50921
259.557	0.51452
259.93	0.51885
260.303	0.51766
260.677	0.51102
261.05	0.51084
261.423	0.51355
261.796	0.5156
262.169	0.52001
262.542	0.51957
262.915	0.5222
263.288	0.52289
263.661	0.52715
264.033	0.53188
264.406	0.5378
264.779	0.54036
265.152	0.54367
265.524	0.54668
265.897	0.54884
266.27	0.54685
266.642	0.55405
267.015	0.55838
267.387	0.55771
267.76	0.55791
268.132	0.56343
268.504	0.56779
268.877	0.56926
269.249	0.57145
269.621	0.5768
269.994	0.57927
270.366	0.58554
270.738	0.59428
271.11	0.6001
271.482	0.60658
271.854	0.60886
272.226	0.60971
272.598	0.61501
272.97	0.61765
273.342	0.622
273.714	0.63032
274.086	0.63938
274.458	0.6482
274.829	0.65085
275.201	0.66085
275.573	0.66507
275.944	0.67205
276.316	0.68109
276.688	0.68875
277.059	0.70619
277.431	0.71195
277.802	0.72286
278.173	0.73812
278.545	0.76463
278.916	0.80269
279.287	0.84881
279.659	0.91186
280.03	0.98355
280.401	1.05849
280.772	1.12909
281.143	1.19319
281.515	1.2478
281.886	1.29513
282.257	1.3317
282.628	1.36341
282.998	1.38784
283.369	1.40522
283.74	1.41785
284.111	1.42834
284.482	1.4366
284.853	1.44035
285.223	1.44395
285.594	1.4456
285.965	1.44616
286.335	1.44552
286.706	1.44355
287.076	1.44033
287.447	1.43687
287.817	1.43299
288.188	1.42851
288.558	1.42346
288.928	1.41782
289.299	1.4112
289.669	1.40436
290.039	1.39708
290.409	1.38932
290.779	1.38163
291.149	1.37376
291.52	1.3654
291.89	1.35728
292.26	1.34921
292.629	1.34103
292.999	1.333
293.369	1.32517
293.739	1.31782
294.109	1.31006
294.479	1.30256
294.848	1.29518
295.218	1.28858
295.588	1.28147
295.957	1.27428
296.327	1.26745
296.696	1.2605
297.066	1.25425
297.435	1.24748
297.805	1.24084
298.174	1.23457
298.544	1.22781
298.913	1.22149
299.282	1.21532
299.651	1.20907
300.021	1.20266
300.39	1.19683
300.759	1.19152
301.128	1.18631
301.497	1.18111
301.866	1.17636
302.235	1.17165
302.604	1.16693
302.973	1.16183
303.342	1.15681
303.71	1.15205
304.079	1.14707
304.448	1.14218
304.817	1.13699
305.185	1.13158
305.554	1.12589
305.923	1.12028
306.291	1.11489
306.66	1.10931
307.028	1.10385
307.397	1.09835
307.765	1.09293
308.133	1.08753
308.502	1.08216
308.87	1.07671
309.238	1.07174
309.606	1.06698
309.975	1.0622
310.343	1.05795
310.711	1.05388
311.079	1.05031
311.447	1.04654
311.815	1.04281
312.183	1.03948
312.551	1.03616
312.919	1.0336
313.286	1.03115
313.654	1.02893
314.022	1.02701
314.39	1.02526
314.757	1.02374
315.125	1.022
315.492	1.02063
315.86	1.0191
316.228	1.01719
316.595	1.01558
316.962	1.01372
317.33	1.01124
317.697	1.00898
318.065	1.00631
318.432	1.00352
318.799	1.00023
319.166	0.99707
319.534	0.99415
319.901	0.991
320.268	0.98827
320.635	0.98573
321.002	0.98319
321.369	0.98084
321.736	0.97826
322.103	0.97577
322.47	0.97321
322.836	0.97097
323.203	0.96853
323.57	0.96635
323.937	0.96419
324.303	0.96208
324.67	0.96005
325.037	0.95802
325.403	0.95633
325.77	0.95478
326.136	0.95325
326.503	0.95209
326.869	0.95074
327.235	0.94946
327.602	0.94843
327.968	0.94729
328.334	0.94563
328.7	0.94433
329.067	0.94283
329.433	0.94148
329.799	0.94004
330.165	0.93877
330.531	0.93748
330.897	0.93624
331.263	0.93508
331.629	0.93411
331.995	0.93341
332.36	0.93261
332.726	0.93215
333.092	0.93165
333.458	0.93117
333.823	0.93061
334.189	0.93001
334.554	0.92978
334.92	0.92933
335.286	0.92897
335.651	0.92849
336.016	0.92816
336.382	0.92794
336.747	0.92757
337.113	0.92724
337.478	0.92702
337.843	0.9269
338.208	0.92669
338.573	0.92658
338.939	0.92643
339.304	0.92646
339.669	0.92604
340.034	0.9259
340.399	0.92595
340.764	0.92583
341.129	0.9257
341.493	0.92587
341.858	0.92593
342.223	0.92597
342.588	0.92633
342.952	0.92621
343.317	0.92634
343.682	0.92653
344.046	0.92662
344.411	0.927
344.775	0.9272
345.14	0.92743
345.504	0.92767
345.869	0.92794
346.233	0.92823
346.597	0.92838
346.962	0.92841
347.326	0.92888
347.69	0.92898
348.054	0.92898
348.418	0.92915
348.782	0.92918
349.146	0.92957
349.51	0.92962
349.874	0.92993
350.238	0.93023
350.602	0.93053
350.966	0.93087
351.33	0.93109
351.693	0.93145
352.057	0.93154
352.421	0.93204
352.784	0.93263
353.148	0.93311
353.512	0.93376
353.875	0.93428
354.239	0.93494
354.602	0.93585
354.966	0.93662
355.329	0.93754
355.692	0.93856
356.056	0.93953
356.419	0.94082
356.782	0.94163
357.145	0.94315
357.508	0.94442
357.871	0.94546
358.234	0.94686
358.597	0.9482
358.96	0.9498
359.323	0.95133
359.686	0.9532
360.049	0.95471
360.412	0.95612
360.775	0.9577
361.137	0.95947
361.5	0.96162
361.863	0.96359
362.225	0.96555
362.588	0.96735
362.951	0.96951
363.313	0.97155
363.675	0.97362
364.038	0.97589
364.4	0.97801
364.763	0.98009
365.125	0.98243
365.487	0.98475
365.849	0.98708
366.212	0.9895
366.574	0.99194
366.936	0.99437
367.298	0.99694
367.66	0.99968
368.022	1.00255
368.384	1.00544
368.746	1.00846
369.108	1.01151
369.469	1.01468
369.831	1.01797
370.193	1.02134
370.555	1.02462
370.916	1.02811
371.278	1.03159
371.64	1.0352
372.001	1.03904
372.363	1.04265
372.724	1.04624
373.086	1.05021
373.447	1.05399
373.808	1.05809
374.17	1.06208
374.531	1.06633
374.892	1.06999
375.253	1.07401
375.615	1.07826
375.976	1.08245
376.337	1.08676
376.698	1.09095
377.059	1.09502
377.42	1.09925
377.781	1.10356
378.141	1.10826
378.502	1.11293
378.863	1.11793
379.224	1.12314
379.585	1.1283
379.945	1.1338
380.306	1.13909
380.666	1.1441
381.027	1.14977
381.388	1.15507
381.748	1.16055
382.108	1.16612
382.469	1.17197
382.829	1.17816
383.19	1.1843
383.55	1.19071
383.91	1.19698
384.27	1.20357
384.63	1.21055
384.991	1.21721
385.351	1.22392
385.711	1.23019
386.071	1.23697
386.431	1.24365
386.791	1.25032
387.15	1.25723
387.51	1.26433
387.87	1.27167
388.23	1.27932
388.589	1.287
388.949	1.2942
389.309	1.30211
389.668	1.30963
390.028	1.31783
390.387	1.32512
390.747	1.33284
391.106	1.34084
391.466	1.34838
391.825	1.35572
392.184	1.3634
392.544	1.37153
392.903	1.37947
393.262	1.38828
393.621	1.39655
393.98	1.40526
394.339	1.41354
394.698	1.42258
395.057	1.43129
395.416	1.44015
395.775	1.44916
396.134	1.45774
396.493	1.46753
396.852	1.47657
397.211	1.48625
397.569	1.49499
397.928	1.50492
398.287	1.51466
398.645	1.524
399.004	1.53392
399.362	1.54411
399.721	1.55421
400.079	1.564
400.438	1.57456
400.796	1.5844
401.154	1.59459
401.512	1.60541
401.871	1.61672
402.229	1.62743
402.587	1.63863
402.945	1.64911
403.303	1.65879
403.661	1.66973
404.019	1.68095
404.377	1.69248
404.735	1.70346
405.093	1.7156
405.451	1.7265
405.808	1.73701
406.166	1.74779
406.524	1.75815
406.882	1.76857
407.239	1.78043
407.597	1.79148
407.954	1.80213
408.312	1.81252
408.669	1.82483
409.027	1.83611
409.384	1.84647
409.741	1.85559
410.099	1.86664
410.456	1.87728
410.813	1.8889
411.17	1.89846
411.527	1.9059
411.884	1.91509
412.242	1.9248
412.599	1.93391
412.956	1.94337
413.312	1.9529
413.669	1.96041
414.026	1.96806
414.383	1.97633
414.74	1.9816
415.096	1.98839
415.453	1.99598
415.81	2.00117
416.166	2.00763
416.523	2.01359
416.879	2.01864
417.236	2.02504
417.592	2.02774
417.949	2.03414
418.305	2.03896
418.661	2.04619
419.018	2.05265
419.374	2.0557
419.73	2.05756
420.086	2.05767
420.442	2.05618
420.798	2.05495
421.154	2.05623
421.51	2.05483
421.866	2.04999
422.222	2.04773
422.578	2.04634
422.934	2.04131
423.29	2.0403
423.646	2.03179
424.001	2.02441
424.357	2.01853
424.713	2.01339
425.068	2.00656
425.424	1.9945
425.779	1.98539
426.135	1.97309
426.49	1.96499
426.845	1.95434
427.201	1.94303
427.556	1.93197
427.911	1.92497
428.266	1.91308
428.622	1.89946
428.977	1.89117
429.332	1.88885
429.687	1.87865
430.042	1.86974
430.397	1.86587
430.752	1.85871
431.107	1.85779
431.461	1.85278
431.816	1.84964
432.171	1.84324
432.526	1.84203
432.88	1.84356
433.235	1.83952
433.59	1.83448
433.944	1.82769
434.299	1.82107
434.653	1.81693
435.008	1.8136
435.362	1.80717
435.716	1.80499
436.071	1.80107
436.425	1.79731
436.779	1.79177
437.133	1.78845
437.487	1.78388
437.841	1.77481
438.195	1.76787
438.549	1.76036
438.903	1.75304
439.257	1.74592
439.611	1.74019
439.965	1.73087
440.319	1.72118
440.673	1.71515
441.026	1.70667
441.38	1.69994
441.734	1.69054
442.087	1.68096
442.441	1.67222
442.794	1.66721
443.148	1.65978
443.501	1.65681
443.855	1.65058
444.208	1.64099
444.561	1.63382
444.915	1.62705
445.268	1.62295
445.621	1.62049
445.974	1.61276
446.327	1.60987
446.68	1.604
447.033	1.59934
447.386	1.59329
447.739	1.58312
448.092	1.57714
448.445	1.57118
448.798	1.56303
449.15	1.55689
449.503	1.55354
449.856	1.54853
450.209	1.53975
450.561	1.53286
450.914	1.52592
451.266	1.51889
451.619	1.51338
451.971	1.50529
452.323	1.49816
452.676	1.48795
453.028	1.47718
453.38	1.4683
453.733	1.45796
454.085	1.45043
454.437	1.44065
454.789	1.43241
455.141	1.42524
455.493	1.41575
455.845	1.40665
456.197	1.39784
456.549	1.39029
456.901	1.38077
457.253	1.37191
457.604	1.36414
457.956	1.35491
458.308	1.34503
458.659	1.33703
459.011	1.32791
459.362	1.32156
459.714	1.31204
460.065	1.30458
460.417	1.29565
460.768	1.28731
461.12	1.28011
461.471	1.27086
461.822	1.26221
462.173	1.25338
462.525	1.24543
462.876	1.23756
463.227	1.22904
463.578	1.22182
463.929	1.21398
464.28	1.20656
464.631	1.19874
464.982	1.19151
465.332	1.18399
465.683	1.17639
466.034	1.16852
466.385	1.16179
466.735	1.15371
467.086	1.14653
467.437	1.13967
467.787	1.13468
468.138	1.12857
468.488	1.12141
468.839	1.11477
469.189	1.10914
469.539	1.1034
469.89	1.09709
470.24	1.09034
470.59	1.085
470.94	1.07804
471.29	1.07256
471.64	1.06609
471.99	1.05969
472.34	1.05396
472.69	1.04891
473.04	1.04263
473.39	1.03723
473.74	1.03148
474.09	1.0263
474.439	1.02103
474.789	1.0157
475.139	1.00951
475.488	1.00468
475.838	0.99862
476.188	0.994
476.537	0.98833
476.886	0.98284
477.236	0.97741
477.585	0.97235
477.935	0.96705
478.284	0.96251
478.633	0.95743
478.982	0.95265
479.331	0.94804
479.68	0.9427
480.03	0.93776
480.379	0.9342
480.728	0.93037
481.076	0.92597
481.425	0.92171
481.774	0.91736
482.123	0.91295
482.472	0.90845
482.821	0.90438
483.169	0.9006
483.518	0.89606
483.866	0.89163
484.215	0.88752
484.563	0.88392
484.912	0.87952
485.26	0.87534
485.609	0.87107
485.957	0.86736
486.305	0.86319
486.654	0.85889
487.002	0.85496
487.35	0.85137
487.698	0.84706
488.046	0.84263
488.394	0.83864
488.742	0.83453
489.09	0.83056
489.438	0.82674
489.786	0.82335
490.134	0.81929
490.482	0.81533
490.829	0.81163
491.177	0.80802
491.525	0.80434
491.872	0.80005
492.22	0.79642
492.567	0.79305
492.915	0.78938
493.262	0.78542
493.61	0.78202
493.957	0.77857
494.304	0.77511
494.652	0.77126
494.999	0.76753
495.346	0.76374
495.693	0.75987
496.04	0.75633
496.387	0.7527
496.734	0.74937
497.081	0.74566
497.428	0.74199
497.775	0.73851
498.122	0.73528
498.469	0.73199
498.816	0.72842
499.162	0.72524
499.509	0.72233
499.856	0.71879
500.202	0.71577
500.549	0.71288
500.895	0.70941
501.242	0.70634
501.588	0.70319
501.935	0.70012
502.281	0.69738
502.627	0.69419
502.973	0.69136
503.32	0.68818
503.666	0.68544
504.012	0.68247
504.358	0.6796
504.704	0.67648
505.05	0.67349
505.396	0.67041
505.742	0.66736
506.088	0.66488
506.433	0.66216
506.779	0.6592
507.125	0.65655
507.471	0.65358
507.816	0.65028
508.162	0.64749
508.507	0.6449
508.853	0.64188
509.198	0.63909
509.544	0.63628
509.889	0.63354
510.234	0.63078
510.58	0.62803
510.925	0.62516
511.27	0.62239
511.615	0.61939
511.96	0.61691
512.306	0.61467
512.651	0.61178
512.996	0.60928
513.341	0.60662
513.685	0.6042
514.03	0.60147
514.375	0.5988
514.72	0.59626
515.065	0.59371
515.409	0.59099
515.754	0.58825
516.099	0.58608
516.443	0.58323
516.788	0.5804
517.132	0.57791
517.476	0.57542
517.821	0.57282
518.165	0.57015
518.51	0.56746
518.854	0.56486
519.198	0.56202
519.542	0.55922
519.886	0.55648
520.23	0.55382
520.574	0.5512
520.918	0.54824
521.262	0.54547
521.606	0.54266
521.95	0.54018
522.294	0.53745
522.638	0.53515
522.981	0.53254
523.325	0.52963
523.669	0.52731
524.012	0.52492
524.356	0.52234
524.699	0.51959
525.043	0.51728
525.386	0.51485
525.73	0.51241
526.073	0.50985
526.416	0.50749
526.76	0.50504
527.103	0.50252
527.446	0.50008
527.789	0.49755
528.132	0.49512
528.475	0.49273
528.818	0.49037
529.161	0.48774
529.504	0.48542
529.847	0.48265
530.19	0.48039
530.532	0.47827
530.875	0.47573
531.218	0.47313
531.56	0.47067
531.903	0.46835
532.246	0.46588
532.588	0.46352
532.93	0.46122
533.273	0.45898
533.615	0.4567
533.958	0.45427
534.3	0.45206
534.642	0.44963
534.984	0.44716
535.326	0.44502
535.669	0.44274
536.011	0.44053
536.353	0.43832
536.695	0.43608
537.037	0.434
537.378	0.43151
537.72	0.42923
538.062	0.4269
538.404	0.42482
538.746	0.42268
539.087	0.42049
539.429	0.41821
539.77	0.41592
540.112	0.41361
540.454	0.41143
540.795	0.40907
541.136	0.40686
541.478	0.40475
541.819	0.4025
542.16	0.40046
542.502	0.39827
542.843	0.39614
543.184	0.39394
543.525	0.39178
543.866	0.38964
544.207	0.38757
544.548	0.38562
544.889	0.38342
545.23	0.38154
545.571	0.37955
545.911	0.37767
546.252	0.37583
546.593	0.37391
546.934	0.37208
547.274	0.3701
547.615	0.36819
547.955	0.36648
548.296	0.36473
548.636	0.36277
548.977	0.36095
549.317	0.35891
549.657	0.35708
549.997	0.35528
550.338	0.35348
550.678	0.35174
551.018	0.35
551.358	0.3481
551.698	0.34639
552.038	0.3445
552.378	0.34276
552.718	0.34089
553.058	0.33901
553.398	0.33711
553.737	0.3354
554.077	0.33363
554.417	0.33198
554.756	0.33035
555.096	0.32885
555.435	0.32706
555.775	0.3255
556.114	0.32392
556.454	0.32245
556.793	0.32082
557.133	0.31938
557.472	0.31783
557.811	0.31638
558.15	0.31488
558.489	0.31353
558.829	0.31187
559.168	0.31047
559.507	0.30906
559.846	0.30758
560.184	0.30626
560.523	0.30488
560.862	0.30351
561.201	0.30211
561.54	0.3008
561.878	0.29926
562.217	0.29764
562.556	0.29637
562.894	0.29512
563.233	0.29388
563.571	0.29268
563.91	0.29134
564.248	0.29001
564.586	0.28884
564.925	0.28758
565.263	0.28639
565.601	0.2851
565.939	0.28411
566.277	0.28291
566.616	0.28168
566.954	0.28058
567.292	0.27922
567.63	0.27805
567.967	0.27675
568.305	0.27566
568.643	0.27433
568.981	0.27326
569.319	0.27217
569.656	0.27095
569.994	0.2697
570.331	0.26848
570.669	0.2673
571.006	0.26632
571.344	0.26521
571.681	0.26404
572.019	0.26286
572.356	0.26166
572.693	0.26058
573.03	0.25931
573.368	0.25825
573.705	0.25727
574.042	0.25617
574.379	0.25515
574.716	0.25402
575.053	0.25316
575.39	0.25183
575.727	0.25077
576.063	0.24973
576.4	0.24854
576.737	0.24747
577.074	0.24649
577.41	0.24552
577.747	0.24452
578.083	0.24349
578.42	0.24238
578.756	0.24137
579.093	0.24042
579.429	0.23952
579.766	0.23861
580.102	0.23769
580.438	0.23664
580.774	0.23557
581.11	0.23459
581.446	0.2338
581.782	0.23292
582.119	0.23185
582.454	0.2311
582.79	0.23023
583.126	0.22929
583.462	0.22845
583.798	0.22765
584.134	0.22673
584.469	0.22575
584.805	0.22475
585.141	0.22383
585.476	0.22308
585.812	0.22229
586.147	0.22147
586.482	0.22051
586.818	0.21973
587.153	0.21887
587.488	0.21811
587.824	0.2172
588.159	0.21628
588.494	0.21538
588.829	0.21455
589.164	0.2139
589.499	0.21319
589.834	0.21252
590.169	0.21194
590.504	0.21133
590.839	0.21055
591.174	0.20991
591.508	0.20934
591.843	0.20861
592.178	0.20781
592.512	0.20704
592.847	0.20625
593.181	0.20539
593.516	0.20477
593.85	0.20397
594.185	0.20346
594.519	0.20279
594.853	0.20221
595.187	0.20165
595.522	0.20096
595.856	0.20026
596.19	0.19958
596.524	0.19898
596.858	0.19826
597.192	0.1974
597.526	0.19677
597.86	0.19607
598.194	0.19531
598.527	0.1946
598.861	0.19393
599.195	0.19325
