Data from Ag dilution 20 min_Absorbance_17-41-27-468.txt Node
Date: Fri Feb 03 17:41:27 EST 2023
User: UV-vis
Spectrometer: FLMS04918
Trigger mode: 0
Integration Time (sec): 1.000000E-3
Scans to average: 10
Electric dark correction enabled: true
Nonlinearity correction enabled: false
Boxcar width: 10
XAxis mode: Wavelengths
Number of Pixels in Spectrum: 2048
>>>>>Begin Spectral Data<<<<<
179.23	-0
179.611	1.22401
179.992	-0
180.373	0.24995
180.754	0.40347
181.134	0.38659
181.515	0.36811
181.896	-0.13324
182.276	-0.25511
182.657	-0.40099
183.038	-0.2466
183.418	-0.20245
183.799	-0.17654
184.179	-0
184.56	0.32428
184.94	0.18837
185.32	0.19387
185.701	0.1887
186.081	0.19226
186.461	0.19846
186.842	0.18914
187.222	0.19449
187.602	0.17873
187.982	0.18272
188.362	0.1782
188.742	0.18461
189.122	0.17729
189.502	0.17462
189.882	0.17199
190.262	0.16928
190.642	0.17032
191.022	0.17179
191.402	0.17046
191.781	0.17032
192.161	0.16496
192.541	0.16589
192.92	0.16663
193.3	0.16501
193.68	0.1603
194.059	0.16073
194.439	0.15899
194.818	0.15912
195.198	0.15707
195.577	0.16462
195.957	0.1617
196.336	0.16151
196.715	0.15886
197.094	0.16316
197.474	0.16281
197.853	0.16385
198.232	0.16562
198.611	0.16106
198.99	0.15975
199.369	0.16362
199.748	0.16775
200.127	0.1754
200.506	0.17317
200.885	0.17345
201.264	0.17395
201.643	0.17889
202.022	0.18194
202.401	0.1846
202.779	0.18521
203.158	0.18703
203.537	0.18585
203.915	0.18939
204.294	0.19622
204.673	0.20115
205.051	0.19919
205.43	0.20224
205.808	0.19886
206.187	0.1973
206.565	0.2001
206.943	0.19904
207.322	0.19633
207.7	0.19765
208.078	0.19141
208.456	0.19169
208.835	0.19242
209.213	0.19209
209.591	0.18995
209.969	0.18502
210.347	0.18154
210.725	0.17929
211.103	0.18334
211.481	0.18446
211.859	0.18143
212.237	0.17445
212.614	0.17385
212.992	0.17345
213.37	0.16875
213.748	0.17089
214.125	0.17384
214.503	0.1734
214.881	0.17518
215.258	0.17717
215.636	0.17244
216.013	0.17578
216.391	0.17973
216.768	0.17775
217.145	0.17473
217.523	0.17705
217.9	0.18006
218.277	0.183
218.655	0.18369
219.032	0.17989
219.409	0.17599
219.786	0.17914
220.163	0.18149
220.54	0.17754
220.917	0.17839
221.294	0.18168
221.671	0.18208
222.048	0.18487
222.425	0.18557
222.802	0.18705
223.179	0.18489
223.556	0.18934
223.932	0.18676
224.309	0.18548
224.686	0.18835
225.062	0.1919
225.439	0.1951
225.815	0.19489
226.192	0.19723
226.568	0.19958
226.945	0.19734
227.321	0.19826
227.698	0.19661
228.074	0.19598
228.45	0.19311
228.827	0.19312
229.203	0.19156
229.579	0.1866
229.955	0.18305
230.331	0.18225
230.707	0.1797
231.083	0.18371
231.46	0.18195
231.835	0.18167
232.211	0.17917
232.587	0.17728
232.963	0.17772
233.339	0.17964
233.715	0.17859
234.091	0.17994
234.466	0.18097
234.842	0.18209
235.218	0.18529
235.593	0.18625
235.969	0.18953
236.344	0.19591
236.72	0.1977
237.095	0.19881
237.471	0.19967
237.846	0.19952
238.222	0.2042
238.597	0.20493
238.972	0.20066
239.348	0.19907
239.723	0.19877
240.098	0.20253
240.473	0.20528
240.848	0.20604
241.223	0.20165
241.598	0.20722
241.973	0.20484
242.348	0.20249
242.723	0.2069
243.098	0.20421
243.473	0.20428
243.848	0.20334
244.223	0.19903
244.597	0.19867
244.972	0.20071
245.347	0.20512
245.721	0.2076
246.096	0.20639
246.47	0.20929
246.845	0.21692
247.219	0.21315
247.594	0.21425
247.968	0.20993
248.343	0.20805
248.717	0.20563
249.091	0.20807
249.466	0.20618
249.84	0.20606
250.214	0.20756
250.588	0.20305
250.962	0.20471
251.336	0.20528
251.71	0.20364
252.084	0.20334
252.458	0.20459
252.832	0.20328
253.206	0.20291
253.58	0.20326
253.954	0.20221
254.328	0.20166
254.702	0.1951
255.075	0.20221
255.449	0.20633
255.823	0.21116
256.196	0.20888
256.57	0.21357
256.943	0.21039
257.317	0.20905
257.69	0.2111
258.064	0.21094
258.437	0.2135
258.81	0.21472
259.184	0.21402
259.557	0.21206
259.93	0.21396
260.303	0.21374
260.677	0.2157
261.05	0.21715
261.423	0.21675
261.796	0.2186
262.169	0.21921
262.542	0.22299
262.915	0.22379
263.288	0.2258
263.661	0.22201
264.033	0.22772
264.406	0.22955
264.779	0.23408
265.152	0.23555
265.524	0.23422
265.897	0.23379
266.27	0.23453
266.642	0.23454
267.015	0.23698
267.387	0.24082
267.76	0.24365
268.132	0.24283
268.504	0.24337
268.877	0.24289
269.249	0.24389
269.621	0.24143
269.994	0.24511
270.366	0.24475
270.738	0.24408
271.11	0.2434
271.482	0.24823
271.854	0.24697
272.226	0.24363
272.598	0.24239
272.97	0.24381
273.342	0.24714
273.714	0.25066
274.086	0.25252
274.458	0.25598
274.829	0.25812
275.201	0.25801
275.573	0.25786
275.944	0.25972
276.316	0.26242
276.688	0.26358
277.059	0.26469
277.431	0.26925
277.802	0.26777
278.173	0.26875
278.545	0.27135
278.916	0.27696
279.287	0.28384
279.659	0.29341
280.03	0.30462
280.401	0.3138
280.772	0.32402
281.143	0.33305
281.515	0.34039
281.886	0.34656
282.257	0.35088
282.628	0.35476
282.998	0.35783
283.369	0.3603
283.74	0.36229
284.111	0.36372
284.482	0.36472
284.853	0.36532
285.223	0.3652
285.594	0.36502
285.965	0.36486
286.335	0.36453
286.706	0.36396
287.076	0.36344
287.447	0.36275
287.817	0.36202
288.188	0.36126
288.558	0.36021
288.928	0.35906
289.299	0.35775
289.669	0.35637
290.039	0.35487
290.409	0.35338
290.779	0.35169
291.149	0.35
291.52	0.34813
291.89	0.34613
292.26	0.34418
292.629	0.34224
292.999	0.34045
293.369	0.33866
293.739	0.33697
294.109	0.33522
294.479	0.33348
294.848	0.33172
295.218	0.33025
295.588	0.32852
295.957	0.32687
296.327	0.32528
296.696	0.32369
297.066	0.32214
297.435	0.32057
297.805	0.31905
298.174	0.31746
298.544	0.31593
298.913	0.31429
299.282	0.31287
299.651	0.31145
300.021	0.31
300.39	0.30854
300.759	0.30721
301.128	0.3059
301.497	0.30454
301.866	0.30339
302.235	0.30221
302.604	0.30098
302.973	0.29959
303.342	0.29843
303.71	0.29717
304.079	0.29587
304.448	0.29457
304.817	0.29319
305.185	0.2917
305.554	0.29002
305.923	0.28842
306.291	0.2867
306.66	0.28506
307.028	0.28346
307.397	0.28177
307.765	0.28014
308.133	0.27849
308.502	0.27683
308.87	0.27523
309.238	0.27366
309.606	0.27212
309.975	0.27074
310.343	0.26939
310.711	0.26807
311.079	0.26677
311.447	0.26562
311.815	0.2645
312.183	0.26336
312.551	0.26237
312.919	0.2615
313.286	0.26077
313.654	0.25996
314.022	0.25952
314.39	0.25892
314.757	0.25832
315.125	0.25773
315.492	0.25724
315.86	0.25675
316.228	0.25625
316.595	0.25573
316.962	0.25496
317.33	0.25414
317.697	0.25325
318.065	0.25236
318.432	0.25136
318.799	0.25035
319.166	0.24916
319.534	0.24801
319.901	0.24693
320.268	0.24593
320.635	0.24499
321.002	0.24405
321.369	0.24327
321.736	0.24241
322.103	0.24152
322.47	0.24053
322.836	0.23976
323.203	0.23895
323.57	0.23801
323.937	0.23713
324.303	0.23626
324.67	0.23564
325.037	0.23488
325.403	0.23423
325.77	0.23345
326.136	0.23295
326.503	0.23234
326.869	0.23179
327.235	0.23124
327.602	0.23065
327.968	0.23005
328.334	0.22953
328.7	0.22894
329.067	0.22827
329.433	0.22748
329.799	0.22684
330.165	0.22644
330.531	0.22588
330.897	0.22532
331.263	0.22496
331.629	0.22455
331.995	0.22415
332.36	0.22372
332.726	0.22346
333.092	0.22311
333.458	0.22308
333.823	0.22281
334.189	0.22271
334.554	0.22249
334.92	0.22236
335.286	0.2223
335.651	0.22209
336.016	0.22183
336.382	0.22165
336.747	0.2214
337.113	0.22123
337.478	0.22112
337.843	0.22093
338.208	0.22079
338.573	0.22054
338.939	0.22041
339.304	0.22021
339.669	0.22009
340.034	0.21998
340.399	0.21989
340.764	0.21975
341.129	0.21942
341.493	0.2192
341.858	0.21892
342.223	0.21894
342.588	0.21889
342.952	0.21875
343.317	0.21875
343.682	0.21869
344.046	0.21865
344.411	0.21864
344.775	0.21864
345.14	0.21852
345.504	0.21845
345.869	0.2184
346.233	0.21847
346.597	0.21832
346.962	0.21825
347.326	0.21813
347.69	0.21808
348.054	0.21793
348.418	0.21782
348.782	0.2179
349.146	0.21778
349.51	0.21784
349.874	0.21771
350.238	0.2176
350.602	0.21754
350.966	0.21747
351.33	0.2174
351.693	0.21719
352.057	0.21714
352.421	0.21705
352.784	0.21714
353.148	0.21716
353.512	0.21725
353.875	0.21724
354.239	0.21739
354.602	0.21753
354.966	0.21751
355.329	0.21759
355.692	0.21774
356.056	0.218
356.419	0.21797
356.782	0.21824
357.145	0.21835
357.508	0.21851
357.871	0.21865
358.234	0.21874
358.597	0.21892
358.96	0.21905
359.323	0.21948
359.686	0.21969
360.049	0.21998
360.412	0.22019
360.775	0.22031
361.137	0.22051
361.5	0.22085
361.863	0.22111
362.225	0.22138
362.588	0.22162
362.951	0.2219
363.313	0.22206
363.675	0.22221
364.038	0.22259
364.4	0.22281
364.763	0.22307
365.125	0.22335
365.487	0.22371
365.849	0.22404
366.212	0.22435
366.574	0.22484
366.936	0.22512
367.298	0.22533
367.66	0.22571
368.022	0.22607
368.384	0.22652
368.746	0.22681
369.108	0.2272
369.469	0.22745
369.831	0.2279
370.193	0.22851
370.555	0.22902
370.916	0.22951
371.278	0.23004
371.64	0.23045
372.001	0.23097
372.363	0.23145
372.724	0.23193
373.086	0.23249
373.447	0.23304
373.808	0.23366
374.17	0.23405
374.531	0.23458
374.892	0.2353
375.253	0.23599
375.615	0.23669
375.976	0.2373
376.337	0.23809
376.698	0.23872
377.059	0.23935
377.42	0.23989
377.781	0.24055
378.141	0.24131
378.502	0.24211
378.863	0.24287
379.224	0.24377
379.585	0.24449
379.945	0.24532
380.306	0.24624
380.666	0.24691
381.027	0.24768
381.388	0.24841
381.748	0.2493
382.108	0.25015
382.469	0.25101
382.829	0.25182
383.19	0.25267
383.55	0.25358
383.91	0.25424
384.27	0.25498
384.63	0.25609
384.991	0.2572
385.351	0.25807
385.711	0.25881
386.071	0.25984
386.431	0.26082
386.791	0.26153
387.15	0.26253
387.51	0.26363
387.87	0.2646
388.23	0.26561
388.589	0.26678
388.949	0.26765
389.309	0.26875
389.668	0.26976
390.028	0.27085
390.387	0.27193
390.747	0.27294
391.106	0.27409
391.466	0.27528
391.825	0.27666
392.184	0.27773
392.544	0.27891
392.903	0.28017
393.262	0.28141
393.621	0.28253
393.98	0.28371
394.339	0.28524
394.698	0.28657
395.057	0.28777
395.416	0.28927
395.775	0.29069
396.134	0.29204
396.493	0.29372
396.852	0.29527
397.211	0.29706
397.569	0.29868
397.928	0.30024
398.287	0.30179
398.645	0.30332
399.004	0.30507
399.362	0.30655
399.721	0.30839
400.079	0.31004
400.438	0.31178
400.796	0.31359
401.154	0.31556
401.512	0.31746
401.871	0.31934
402.229	0.3214
402.587	0.32339
402.945	0.32535
403.303	0.32743
403.661	0.32947
404.019	0.3314
404.377	0.33329
404.735	0.33512
405.093	0.33722
405.451	0.33924
405.808	0.3413
406.166	0.34332
406.524	0.34525
406.882	0.34735
407.239	0.34914
407.597	0.35097
407.954	0.35287
408.312	0.3549
408.669	0.35685
409.027	0.35896
409.384	0.3611
409.741	0.36303
410.099	0.36515
410.456	0.36707
410.813	0.36903
411.17	0.37092
411.527	0.373
411.884	0.3749
412.242	0.3768
412.599	0.37865
412.956	0.38052
413.312	0.38231
413.669	0.38395
414.026	0.38563
414.383	0.38732
414.74	0.38923
415.096	0.39106
415.453	0.39289
415.81	0.39457
416.166	0.39615
416.523	0.39761
416.879	0.39912
417.236	0.40068
417.592	0.40218
417.949	0.40355
418.305	0.40479
418.661	0.40615
419.018	0.4071
419.374	0.40836
419.73	0.40944
420.086	0.4102
420.442	0.41107
420.798	0.41189
421.154	0.41281
421.51	0.41342
421.866	0.41389
422.222	0.41423
422.578	0.41438
422.934	0.41445
423.29	0.41455
423.646	0.41469
424.001	0.41499
424.357	0.41503
424.713	0.41521
425.068	0.41493
425.424	0.41469
425.779	0.41443
426.135	0.41381
426.49	0.41337
426.845	0.41263
427.201	0.41187
427.556	0.41132
427.911	0.41021
428.266	0.40935
428.622	0.40861
428.977	0.40803
429.332	0.40696
429.687	0.40579
430.042	0.40542
430.397	0.40474
430.752	0.4039
431.107	0.40318
431.461	0.40209
431.816	0.40094
432.171	0.40006
432.526	0.3994
432.88	0.39825
433.235	0.39701
433.59	0.39603
433.944	0.39481
434.299	0.39335
434.653	0.39197
435.008	0.39065
435.362	0.38949
435.716	0.388
436.071	0.38634
436.425	0.38512
436.779	0.38404
437.133	0.38235
437.487	0.38053
437.841	0.37881
438.195	0.3771
438.549	0.37517
438.903	0.3737
439.257	0.37231
439.611	0.37029
439.965	0.36875
440.319	0.36698
440.673	0.36512
441.026	0.36311
441.38	0.36162
441.734	0.35984
442.087	0.35823
442.441	0.35626
442.794	0.35445
443.148	0.35298
443.501	0.35152
443.855	0.34974
444.208	0.34746
444.561	0.34617
444.915	0.34453
445.268	0.34295
445.621	0.34146
445.974	0.34018
446.327	0.33801
446.68	0.33619
447.033	0.33454
447.386	0.33259
447.739	0.33121
448.092	0.33001
448.445	0.32858
448.798	0.32699
449.15	0.3257
449.503	0.3244
449.856	0.32302
450.209	0.32165
450.561	0.32016
450.914	0.31866
451.266	0.31724
451.619	0.31609
451.971	0.31466
452.323	0.31354
452.676	0.31214
453.028	0.31092
453.38	0.30939
453.733	0.30824
454.085	0.30695
454.437	0.30569
454.789	0.30432
455.141	0.30294
455.493	0.30102
455.845	0.29966
456.197	0.29837
456.549	0.29672
456.901	0.29496
457.253	0.2935
457.604	0.2923
457.956	0.29065
458.308	0.28934
458.659	0.2878
459.011	0.2865
459.362	0.28528
459.714	0.28384
460.065	0.28236
460.417	0.28092
460.768	0.27933
461.12	0.27791
461.471	0.27655
461.822	0.27512
462.173	0.27379
462.525	0.27257
462.876	0.27163
463.227	0.27026
463.578	0.26875
463.929	0.26749
464.28	0.26609
464.631	0.26512
464.982	0.26404
465.332	0.26335
465.683	0.26231
466.034	0.26147
466.385	0.26031
466.735	0.25906
467.086	0.25782
467.437	0.25665
467.787	0.25584
468.138	0.25531
468.488	0.25442
468.839	0.25321
469.189	0.25227
469.539	0.2513
469.89	0.24996
470.24	0.2491
470.59	0.24834
470.94	0.24746
471.29	0.24674
471.64	0.24589
471.99	0.24487
472.34	0.24404
472.69	0.24293
473.04	0.24201
473.39	0.24083
473.74	0.23967
474.09	0.23894
474.439	0.23812
474.789	0.23733
475.139	0.23625
475.488	0.2353
475.838	0.23463
476.188	0.23431
476.537	0.23366
476.886	0.23284
477.236	0.23238
477.585	0.23151
477.935	0.23081
478.284	0.23017
478.633	0.22919
478.982	0.22871
479.331	0.22804
479.68	0.22744
480.03	0.22692
480.379	0.22625
480.728	0.22591
481.076	0.22548
481.425	0.22484
481.774	0.22431
482.123	0.22358
482.472	0.22281
482.821	0.22213
483.169	0.22124
483.518	0.22045
483.866	0.21976
484.215	0.21904
484.563	0.21828
484.912	0.21768
485.26	0.21705
485.609	0.21641
485.957	0.21587
486.305	0.21523
486.654	0.21451
487.002	0.21348
487.35	0.21268
487.698	0.21213
488.046	0.21134
488.394	0.21034
488.742	0.20979
489.09	0.20916
489.438	0.20844
489.786	0.20776
490.134	0.20699
490.482	0.20653
490.829	0.20581
491.177	0.20505
491.525	0.20442
491.872	0.20408
492.22	0.20354
492.567	0.20284
492.915	0.20211
493.262	0.20144
493.61	0.20074
493.957	0.20037
494.304	0.19986
494.652	0.19934
494.999	0.19871
495.346	0.1982
495.693	0.19778
496.04	0.19709
496.387	0.1964
496.734	0.19594
497.081	0.19541
497.428	0.19487
497.775	0.19441
498.122	0.19392
498.469	0.19343
498.816	0.19285
499.162	0.19213
499.509	0.19143
499.856	0.1908
500.202	0.19013
500.549	0.1898
500.895	0.18928
501.242	0.18858
501.588	0.18814
501.935	0.18731
502.281	0.18692
502.627	0.18616
502.973	0.1859
503.32	0.18522
503.666	0.18467
504.012	0.18428
504.358	0.18391
504.704	0.18328
505.05	0.18277
505.396	0.18228
505.742	0.18177
506.088	0.18146
506.433	0.18098
506.779	0.18062
507.125	0.18019
507.471	0.18016
507.816	0.17957
508.162	0.17927
508.507	0.17879
508.853	0.17828
509.198	0.17811
509.544	0.1776
509.889	0.17726
510.234	0.17693
510.58	0.17659
510.925	0.17633
511.27	0.17591
511.615	0.17533
511.96	0.17493
512.306	0.17428
512.651	0.17384
512.996	0.17341
513.341	0.17269
513.685	0.17213
514.03	0.1716
514.375	0.17128
514.72	0.17056
515.065	0.17026
515.409	0.16979
515.754	0.16958
516.099	0.16933
516.443	0.16879
516.788	0.16848
517.132	0.16824
517.476	0.16772
517.821	0.16722
518.165	0.16673
518.51	0.16608
518.854	0.16589
519.198	0.16563
519.542	0.1655
519.886	0.16493
520.23	0.16447
520.574	0.16432
520.918	0.16407
521.262	0.16357
521.606	0.1632
521.95	0.16304
522.294	0.1625
522.638	0.16198
522.981	0.16147
523.325	0.16116
523.669	0.16096
524.012	0.16048
524.356	0.16006
524.699	0.15967
525.043	0.15935
525.386	0.15897
525.73	0.1585
526.073	0.15809
526.416	0.15766
526.76	0.15711
527.103	0.15701
527.446	0.15669
527.789	0.15624
528.132	0.1557
528.475	0.15557
528.818	0.15513
529.161	0.15469
529.504	0.15447
529.847	0.15402
530.19	0.15367
530.532	0.15313
530.875	0.15258
531.218	0.15194
531.56	0.15169
531.903	0.15133
532.246	0.15086
532.588	0.15018
532.93	0.14999
533.273	0.14952
533.615	0.14911
533.958	0.14863
534.3	0.14816
534.642	0.14753
534.984	0.14718
535.326	0.14674
535.669	0.14627
536.011	0.14564
536.353	0.14508
536.695	0.14452
537.037	0.14407
537.378	0.14351
537.72	0.14319
538.062	0.14266
538.404	0.14238
538.746	0.14171
539.087	0.14137
539.429	0.14092
539.77	0.14054
540.112	0.14003
540.454	0.13974
540.795	0.13929
541.136	0.13899
541.478	0.13838
541.819	0.13825
542.16	0.13797
542.502	0.13778
542.843	0.13745
543.184	0.13728
543.525	0.13681
543.866	0.13632
544.207	0.13612
544.548	0.13573
544.889	0.13513
545.23	0.13486
545.571	0.13454
545.911	0.13411
546.252	0.13357
546.593	0.1332
546.934	0.13289
547.274	0.13255
547.615	0.13181
547.955	0.13153
548.296	0.13086
548.636	0.13033
548.977	0.12997
549.317	0.1293
549.657	0.12877
549.997	0.1283
550.338	0.1276
550.678	0.1272
551.018	0.12713
551.358	0.1267
551.698	0.1263
552.038	0.12593
552.378	0.1255
552.718	0.12512
553.058	0.12474
553.398	0.1243
553.737	0.12413
554.077	0.12391
554.417	0.12359
554.756	0.12341
555.096	0.12286
555.435	0.12262
555.775	0.12256
556.114	0.12209
556.454	0.12179
556.793	0.12148
557.133	0.12118
557.472	0.12097
557.811	0.12072
558.15	0.12023
558.489	0.11981
558.829	0.11952
559.168	0.11907
559.507	0.11887
559.846	0.11845
560.184	0.11815
560.523	0.11784
560.862	0.11731
561.201	0.11703
561.54	0.11682
561.878	0.11639
562.217	0.11617
562.556	0.1157
562.894	0.11527
563.233	0.11485
563.571	0.11457
563.91	0.11421
564.248	0.11378
564.586	0.11361
564.925	0.11333
565.263	0.11293
565.601	0.1126
565.939	0.11219
566.277	0.112
566.616	0.11165
566.954	0.11142
567.292	0.11107
567.63	0.11064
567.967	0.11041
568.305	0.10988
568.643	0.10952
568.981	0.10939
569.319	0.10886
569.656	0.10879
569.994	0.10854
570.331	0.10835
570.669	0.10791
571.006	0.10772
571.344	0.10737
571.681	0.10699
572.019	0.10673
572.356	0.1064
572.693	0.1063
573.03	0.10625
573.368	0.106
573.705	0.10576
574.042	0.1056
574.379	0.10548
574.716	0.10547
575.053	0.10541
575.39	0.10535
575.727	0.10504
576.063	0.10481
576.4	0.10487
576.737	0.10452
577.074	0.1042
577.41	0.10411
577.747	0.10391
578.083	0.10366
578.42	0.10353
578.756	0.10332
579.093	0.10301
579.429	0.10291
579.766	0.10265
580.102	0.1024
580.438	0.10217
580.774	0.10186
581.11	0.10148
581.446	0.10117
581.782	0.10092
582.119	0.10059
582.454	0.10025
582.79	0.10003
583.126	0.09965
583.462	0.09946
583.798	0.09943
584.134	0.09922
584.469	0.09891
584.805	0.09881
585.141	0.09853
585.476	0.09835
585.812	0.0983
586.147	0.09805
586.482	0.09765
586.818	0.09746
587.153	0.09715
587.488	0.09697
587.824	0.09686
588.159	0.09664
588.494	0.09651
588.829	0.09627
589.164	0.096
589.499	0.09591
589.834	0.09591
590.169	0.09577
590.504	0.09553
590.839	0.09527
591.174	0.0953
591.508	0.09518
591.843	0.09501
592.178	0.09485
592.512	0.09475
592.847	0.09447
593.181	0.09434
593.516	0.09442
593.85	0.09418
594.185	0.09408
594.519	0.09394
594.853	0.09366
595.187	0.09369
595.522	0.09338
595.856	0.09316
596.19	0.09289
596.524	0.09277
596.858	0.09256
597.192	0.09229
597.526	0.09208
597.86	0.09182
