Data from Ag dilution 0 min_Absorbance_17-08-40-576.txt Node
Date: Fri Feb 03 17:08:40 EST 2023
User: UV-vis
Spectrometer: FLMS04918
Trigger mode: 0
Integration Time (sec): 1.000000E-3
Scans to average: 10
Electric dark correction enabled: true
Nonlinearity correction enabled: false
Boxcar width: 10
XAxis mode: Wavelengths
Number of Pixels in Spectrum: 2048
>>>>>Begin Spectral Data<<<<<
179.23	0.17492
179.611	0.25787
179.992	-0.27342
180.373	0.01679
180.754	0.29557
181.134	0.52576
181.515	0.56481
181.896	0.61396
182.276	-0.25259
182.657	-0.37378
183.038	-0.56546
183.418	-0.1344
183.799	1.94761
184.179	-2.13531
184.56	-0.07553
184.94	0.00151
185.32	0.02983
185.701	0.04161
186.081	0.06737
186.461	0.08094
186.842	0.07559
187.222	0.08389
187.602	0.08416
187.982	0.08538
188.362	0.08669
188.742	0.0914
189.122	0.08547
189.502	0.08626
189.882	0.08486
190.262	0.08713
190.642	0.09078
191.022	0.08958
191.402	0.09042
191.781	0.09778
192.161	0.09714
192.541	0.10208
192.92	0.10438
193.3	0.10488
193.68	0.1056
194.059	0.10392
194.439	0.10371
194.818	0.10565
195.198	0.10534
195.577	0.10911
195.957	0.1067
196.336	0.10901
196.715	0.10874
197.094	0.11604
197.474	0.11468
197.853	0.11817
198.232	0.11576
198.611	0.11475
198.99	0.11327
199.369	0.11714
199.748	0.11704
200.127	0.11814
200.506	0.11632
200.885	0.11459
201.264	0.11715
201.643	0.11595
202.022	0.11834
202.401	0.11801
202.779	0.11764
203.158	0.11677
203.537	0.11993
203.915	0.12246
204.294	0.12104
204.673	0.12142
205.051	0.11706
205.43	0.12095
205.808	0.11951
206.187	0.12019
206.565	0.11975
206.943	0.12189
207.322	0.1217
207.7	0.11869
208.078	0.12139
208.456	0.12027
208.835	0.12077
209.213	0.11496
209.591	0.11669
209.969	0.11619
210.347	0.11409
210.725	0.11456
211.103	0.12027
211.481	0.11419
211.859	0.11247
212.237	0.11063
212.614	0.11369
212.992	0.11702
213.37	0.11591
213.748	0.11389
214.125	0.11193
214.503	0.10884
214.881	0.10877
215.258	0.10737
215.636	0.11005
216.013	0.1104
216.391	0.11067
216.768	0.11175
217.145	0.11297
217.523	0.11491
217.9	0.11347
218.277	0.11357
218.655	0.11577
219.032	0.1127
219.409	0.11277
219.786	0.11172
220.163	0.11615
220.54	0.11367
220.917	0.11124
221.294	0.1087
221.671	0.10928
222.048	0.11341
222.425	0.11278
222.802	0.11064
223.179	0.10929
223.556	0.10757
223.932	0.10461
224.309	0.10677
224.686	0.1058
225.062	0.10766
225.439	0.10722
225.815	0.1063
226.192	0.10945
226.568	0.10595
226.945	0.10536
227.321	0.10713
227.698	0.11141
228.074	0.11008
228.45	0.11258
228.827	0.11356
229.203	0.11229
229.579	0.11335
229.955	0.10917
230.331	0.11284
230.707	0.11706
231.083	0.11927
231.46	0.12277
231.835	0.12509
232.211	0.12456
232.587	0.12391
232.963	0.12394
233.339	0.12428
233.715	0.12655
234.091	0.12679
234.466	0.12892
234.842	0.12989
235.218	0.12705
235.593	0.12381
235.969	0.12656
236.344	0.12629
236.72	0.12633
237.095	0.12779
237.471	0.1284
237.846	0.12846
238.222	0.13037
238.597	0.12977
238.972	0.12871
239.348	0.12759
239.723	0.12741
240.098	0.12808
240.473	0.12905
240.848	0.12779
241.223	0.12634
241.598	0.12788
241.973	0.12702
242.348	0.1303
242.723	0.13187
243.098	0.13444
243.473	0.1343
243.848	0.13233
244.223	0.12936
244.597	0.12922
244.972	0.13254
245.347	0.13497
245.721	0.13777
246.096	0.13677
246.47	0.13506
246.845	0.13849
247.219	0.13859
247.594	0.14005
247.968	0.1395
248.343	0.13874
248.717	0.13944
249.091	0.14172
249.466	0.14203
249.84	0.14173
250.214	0.1399
250.588	0.13879
250.962	0.13884
251.336	0.14144
251.71	0.14174
252.084	0.1399
252.458	0.14154
252.832	0.13922
253.206	0.13696
253.58	0.13723
253.954	0.13803
254.328	0.14061
254.702	0.13876
255.075	0.13909
255.449	0.13855
255.823	0.13919
256.196	0.13985
256.57	0.14018
256.943	0.13948
257.317	0.1398
257.69	0.14118
258.064	0.13986
258.437	0.13813
258.81	0.13755
259.184	0.135
259.557	0.13501
259.93	0.13817
260.303	0.13512
260.677	0.13769
261.05	0.1376
261.423	0.13623
261.796	0.1367
262.169	0.13578
262.542	0.13569
262.915	0.13699
263.288	0.13751
263.661	0.13641
264.033	0.13909
264.406	0.13918
264.779	0.14189
265.152	0.14126
265.524	0.14153
265.897	0.14233
266.27	0.14309
266.642	0.14579
267.015	0.14836
267.387	0.15006
267.76	0.15323
268.132	0.15442
268.504	0.15379
268.877	0.15538
269.249	0.15517
269.621	0.15527
269.994	0.15844
270.366	0.16189
270.738	0.16217
271.11	0.16367
271.482	0.16526
271.854	0.16292
272.226	0.16502
272.598	0.16339
272.97	0.16437
273.342	0.16415
273.714	0.16798
274.086	0.16847
274.458	0.17068
274.829	0.17094
275.201	0.17118
275.573	0.16957
275.944	0.17172
276.316	0.17306
276.688	0.1733
277.059	0.17513
277.431	0.17526
277.802	0.17365
278.173	0.1724
278.545	0.17369
278.916	0.17628
279.287	0.18149
279.659	0.18742
280.03	0.19403
280.401	0.20139
280.772	0.20809
281.143	0.21393
281.515	0.21924
281.886	0.22427
282.257	0.22837
282.628	0.23185
282.998	0.23385
283.369	0.23563
283.74	0.23716
284.111	0.23772
284.482	0.23848
284.853	0.23858
285.223	0.23868
285.594	0.23836
285.965	0.23818
286.335	0.2376
286.706	0.23716
287.076	0.23668
287.447	0.23606
287.817	0.23543
288.188	0.23468
288.558	0.23381
288.928	0.23293
289.299	0.23185
289.669	0.23057
290.039	0.22915
290.409	0.22771
290.779	0.22641
291.149	0.22497
291.52	0.22334
291.89	0.22186
292.26	0.22009
292.629	0.21853
292.999	0.21688
293.369	0.21531
293.739	0.21379
294.109	0.21227
294.479	0.21069
294.848	0.20911
295.218	0.20769
295.588	0.20616
295.957	0.20474
296.327	0.20331
296.696	0.20183
297.066	0.2003
297.435	0.19893
297.805	0.19744
298.174	0.19603
298.544	0.19454
298.913	0.19296
299.282	0.19157
299.651	0.19018
300.021	0.18894
300.39	0.18759
300.759	0.18635
301.128	0.18514
301.497	0.18391
301.866	0.18276
302.235	0.18172
302.604	0.18063
302.973	0.17948
303.342	0.17834
303.71	0.17712
304.079	0.17605
304.448	0.17483
304.817	0.17364
305.185	0.17228
305.554	0.17089
305.923	0.16943
306.291	0.16784
306.66	0.16647
307.028	0.16515
307.397	0.16374
307.765	0.16231
308.133	0.16097
308.502	0.15974
308.87	0.15837
309.238	0.15706
309.606	0.15597
309.975	0.15481
310.343	0.15378
310.711	0.15283
311.079	0.15197
311.447	0.15114
311.815	0.15021
312.183	0.14954
312.551	0.14886
312.919	0.14836
313.286	0.14799
313.654	0.14765
314.022	0.14753
314.39	0.1473
314.757	0.14704
315.125	0.14679
315.492	0.14659
315.86	0.14629
316.228	0.14596
316.595	0.14586
316.962	0.14564
317.33	0.14525
317.697	0.14489
318.065	0.14444
318.432	0.14389
318.799	0.14331
319.166	0.14257
319.534	0.14191
319.901	0.14117
320.268	0.14062
320.635	0.14014
321.002	0.13972
321.369	0.13928
321.736	0.13878
322.103	0.13832
322.47	0.13785
322.836	0.13755
323.203	0.13724
323.57	0.13695
323.937	0.13663
324.303	0.13635
324.67	0.13608
325.037	0.13581
325.403	0.13556
325.77	0.13536
326.136	0.13533
326.503	0.1353
326.869	0.13538
327.235	0.13548
327.602	0.13557
327.968	0.13556
328.334	0.13553
328.7	0.13543
329.067	0.1353
329.433	0.13519
329.799	0.13515
330.165	0.13515
330.531	0.13512
330.897	0.13519
331.263	0.13535
331.629	0.13552
331.995	0.13564
332.36	0.13582
332.726	0.13608
333.092	0.13642
333.458	0.13679
333.823	0.13704
334.189	0.13738
334.554	0.13767
334.92	0.13805
335.286	0.13854
335.651	0.13898
336.016	0.13941
336.382	0.13985
336.747	0.14025
337.113	0.14069
337.478	0.14118
337.843	0.14158
338.208	0.14204
338.573	0.14235
338.939	0.14279
339.304	0.14315
339.669	0.14367
340.034	0.14417
340.399	0.14472
340.764	0.14512
341.129	0.14556
341.493	0.14602
341.858	0.14644
342.223	0.147
342.588	0.14762
342.952	0.14809
343.317	0.14862
343.682	0.14908
344.046	0.14955
344.411	0.15023
344.775	0.15076
345.14	0.15129
345.504	0.15193
345.869	0.15257
346.233	0.1533
346.597	0.15389
346.962	0.15456
347.326	0.15509
347.69	0.15569
348.054	0.15627
348.418	0.15688
348.782	0.15749
349.146	0.15822
349.51	0.1589
349.874	0.15963
350.238	0.16025
350.602	0.16096
350.966	0.16163
351.33	0.16235
351.693	0.1631
352.057	0.16369
352.421	0.16456
352.784	0.1654
353.148	0.16619
353.512	0.16707
353.875	0.16785
354.239	0.16869
354.602	0.16964
354.966	0.17051
355.329	0.17134
355.692	0.17234
356.056	0.17341
356.419	0.17439
356.782	0.17538
357.145	0.17633
357.508	0.17748
357.871	0.17854
358.234	0.17943
358.597	0.18052
358.96	0.18159
359.323	0.18275
359.686	0.18396
360.049	0.18498
360.412	0.18612
360.775	0.18726
361.137	0.18828
361.5	0.18951
361.863	0.19073
362.225	0.19182
362.588	0.19306
362.951	0.19429
363.313	0.19544
363.675	0.19646
364.038	0.19765
364.4	0.19885
364.763	0.20021
365.125	0.20126
365.487	0.20249
365.849	0.20387
366.212	0.20509
366.574	0.20641
366.936	0.20757
367.298	0.2089
367.66	0.21028
368.022	0.21163
368.384	0.21303
368.746	0.21434
369.108	0.21578
369.469	0.21715
369.831	0.21847
370.193	0.21996
370.555	0.22163
370.916	0.2231
371.278	0.22475
371.64	0.22633
372.001	0.22782
372.363	0.22927
372.724	0.23082
373.086	0.23233
373.447	0.23379
373.808	0.23537
374.17	0.23685
374.531	0.23837
374.892	0.23977
375.253	0.24131
375.615	0.24292
375.976	0.24448
376.337	0.24617
376.698	0.24769
377.059	0.24924
377.42	0.25109
377.781	0.25268
378.141	0.25419
378.502	0.25594
378.863	0.25772
379.224	0.25952
379.585	0.26125
379.945	0.26308
380.306	0.26493
380.666	0.26668
381.027	0.26859
381.388	0.27038
381.748	0.27228
382.108	0.27428
382.469	0.27637
382.829	0.27843
383.19	0.28043
383.55	0.28251
383.91	0.28463
384.27	0.28674
384.63	0.28895
384.991	0.29116
385.351	0.29332
385.711	0.29541
386.071	0.29762
386.431	0.29971
386.791	0.30173
387.15	0.30404
387.51	0.30641
387.87	0.30865
388.23	0.31092
388.589	0.31325
388.949	0.31569
389.309	0.31812
389.668	0.32055
390.028	0.32288
390.387	0.3253
390.747	0.32757
391.106	0.33005
391.466	0.33246
391.825	0.33512
392.184	0.3377
392.544	0.34022
392.903	0.3429
393.262	0.34563
393.621	0.34844
393.98	0.35128
394.339	0.35426
394.698	0.35725
395.057	0.35999
395.416	0.36296
395.775	0.36606
396.134	0.36913
396.493	0.37242
396.852	0.37558
397.211	0.37899
397.569	0.38244
397.928	0.38581
398.287	0.38947
398.645	0.39296
399.004	0.3966
399.362	0.4001
399.721	0.40376
400.079	0.40744
400.438	0.4113
400.796	0.41531
401.154	0.41921
401.512	0.42339
401.871	0.42775
402.229	0.43206
402.587	0.43659
402.945	0.44117
403.303	0.44558
403.661	0.44997
404.019	0.45413
404.377	0.45865
404.735	0.46321
405.093	0.46784
405.451	0.47242
405.808	0.47691
406.166	0.48146
406.524	0.48578
406.882	0.49015
407.239	0.49462
407.597	0.49917
407.954	0.50376
408.312	0.50834
408.669	0.51305
409.027	0.518
409.384	0.52273
409.741	0.52754
410.099	0.53233
410.456	0.53702
410.813	0.54156
411.17	0.54611
411.527	0.5508
411.884	0.55529
412.242	0.55979
412.599	0.5641
412.956	0.56836
413.312	0.57261
413.669	0.57676
414.026	0.58113
414.383	0.58533
414.74	0.58943
415.096	0.59324
415.453	0.59712
415.81	0.6008
416.166	0.60464
416.523	0.60821
416.879	0.61205
417.236	0.61579
417.592	0.61952
417.949	0.62301
418.305	0.62633
418.661	0.62957
419.018	0.63241
419.374	0.63492
419.73	0.6373
420.086	0.63969
420.442	0.64204
420.798	0.64399
421.154	0.64591
421.51	0.6476
421.866	0.64904
422.222	0.65024
422.578	0.65154
422.934	0.65244
423.29	0.6534
423.646	0.65367
424.001	0.65413
424.357	0.65434
424.713	0.65435
425.068	0.6538
425.424	0.65337
425.779	0.65251
426.135	0.65141
426.49	0.65042
426.845	0.64947
427.201	0.64859
427.556	0.64741
427.911	0.64565
428.266	0.64393
428.622	0.64236
428.977	0.64048
429.332	0.63865
429.687	0.6367
430.042	0.63502
430.397	0.63306
430.752	0.63126
431.107	0.63002
431.461	0.62781
431.816	0.62624
432.171	0.62433
432.526	0.62239
432.88	0.61995
433.235	0.61771
433.59	0.61543
433.944	0.61226
434.299	0.60946
434.653	0.60608
435.008	0.60276
435.362	0.59982
435.716	0.59687
436.071	0.59364
436.425	0.59025
436.779	0.5874
437.133	0.5835
437.487	0.57943
437.841	0.57504
438.195	0.57082
438.549	0.56625
438.903	0.56206
439.257	0.55751
439.611	0.55232
439.965	0.54748
440.319	0.5425
440.673	0.53746
441.026	0.53197
441.38	0.52736
441.734	0.52211
442.087	0.51721
442.441	0.51179
442.794	0.50657
443.148	0.50141
443.501	0.49605
443.855	0.49102
444.208	0.48518
444.561	0.48049
444.915	0.47533
445.268	0.47043
445.621	0.46543
445.974	0.46034
446.327	0.45506
446.68	0.44975
447.033	0.44448
447.386	0.43983
447.739	0.43498
448.092	0.43046
448.445	0.42586
448.798	0.42132
449.15	0.41681
449.503	0.41224
449.856	0.40755
450.209	0.40314
450.561	0.39842
450.914	0.3941
451.266	0.38984
451.619	0.3856
451.971	0.38137
452.323	0.37705
452.676	0.37263
453.028	0.36836
453.38	0.36414
453.733	0.36018
454.085	0.35594
454.437	0.35183
454.789	0.34732
455.141	0.34306
455.493	0.33868
455.845	0.33449
456.197	0.33034
456.549	0.32609
456.901	0.32183
457.253	0.31775
457.604	0.31396
457.956	0.31032
458.308	0.30637
458.659	0.30235
459.011	0.29868
459.362	0.29492
459.714	0.29142
460.065	0.28788
460.417	0.28432
460.768	0.28094
461.12	0.27749
461.471	0.2741
461.822	0.27096
462.173	0.26784
462.525	0.26478
462.876	0.26189
463.227	0.25889
463.578	0.25552
463.929	0.25274
464.28	0.25008
464.631	0.2477
464.982	0.2448
465.332	0.24206
465.683	0.23964
466.034	0.23728
466.385	0.2346
466.735	0.23215
467.086	0.22927
467.437	0.22701
467.787	0.22491
468.138	0.22262
468.488	0.22024
468.839	0.21804
469.189	0.21602
469.539	0.21392
469.89	0.21179
470.24	0.20961
470.59	0.20765
470.94	0.20585
471.29	0.20388
471.64	0.20181
471.99	0.19966
472.34	0.19807
472.69	0.1963
473.04	0.19425
473.39	0.19245
473.74	0.1907
474.09	0.18906
474.439	0.18764
474.789	0.18609
475.139	0.18421
475.488	0.1825
475.838	0.18093
476.188	0.1796
476.537	0.17813
476.886	0.17659
477.236	0.17531
477.585	0.17388
477.935	0.17266
478.284	0.17139
478.633	0.17009
478.982	0.16919
479.331	0.16812
479.68	0.16675
480.03	0.1659
480.379	0.1649
480.728	0.16366
481.076	0.16274
481.425	0.16163
481.774	0.16064
482.123	0.15951
482.472	0.15865
482.821	0.15774
483.169	0.15686
483.518	0.15579
483.866	0.15481
484.215	0.15398
484.563	0.15277
484.912	0.15211
485.26	0.15111
485.609	0.15038
485.957	0.14975
486.305	0.14875
486.654	0.14796
487.002	0.14723
487.35	0.14608
487.698	0.14537
488.046	0.14473
488.394	0.14372
488.742	0.14295
489.09	0.14221
489.438	0.14135
489.786	0.14052
490.134	0.1398
490.482	0.13922
490.829	0.13853
491.177	0.13794
491.525	0.13722
491.872	0.13693
492.22	0.13617
492.567	0.13567
492.915	0.13492
493.262	0.1342
493.61	0.13373
493.957	0.13326
494.304	0.13274
494.652	0.13241
494.999	0.13187
495.346	0.13132
495.693	0.13107
496.04	0.13044
496.387	0.13003
496.734	0.12973
497.081	0.12957
497.428	0.12919
497.775	0.12877
498.122	0.12846
498.469	0.1279
498.816	0.12745
499.162	0.1269
499.509	0.12675
499.856	0.12616
500.202	0.12576
500.549	0.1253
500.895	0.12473
501.242	0.12424
501.588	0.12372
501.935	0.12311
502.281	0.12273
502.627	0.12246
502.973	0.12229
503.32	0.12202
503.666	0.12178
504.012	0.12159
504.358	0.12104
504.704	0.12082
505.05	0.12054
505.396	0.12004
505.742	0.11983
506.088	0.11971
506.433	0.11934
506.779	0.11873
507.125	0.11848
507.471	0.11856
507.816	0.11839
508.162	0.11831
508.507	0.11806
508.853	0.11789
509.198	0.1179
509.544	0.11775
509.889	0.11748
510.234	0.11717
510.58	0.11705
510.925	0.11677
511.27	0.11632
511.615	0.11608
511.96	0.11589
512.306	0.11551
512.651	0.11549
512.996	0.11541
513.341	0.11523
513.685	0.11517
514.03	0.11506
514.375	0.11506
514.72	0.11443
515.065	0.1144
515.409	0.11409
515.754	0.11411
516.099	0.11398
516.443	0.11393
516.788	0.1137
517.132	0.11386
517.476	0.11386
517.821	0.11371
518.165	0.11348
518.51	0.11329
518.854	0.11321
519.198	0.11296
519.542	0.11305
519.886	0.11296
520.23	0.11267
520.574	0.11259
520.918	0.11236
521.262	0.11217
521.606	0.11181
521.95	0.1119
522.294	0.11175
522.638	0.11153
522.981	0.11119
523.325	0.11108
523.669	0.11065
524.012	0.11052
524.356	0.11007
524.699	0.10963
525.043	0.10929
525.386	0.10903
525.73	0.10891
526.073	0.10876
526.416	0.10859
526.76	0.10817
527.103	0.10783
527.446	0.10766
527.789	0.10722
528.132	0.10697
528.475	0.10694
528.818	0.10696
529.161	0.10666
529.504	0.10634
529.847	0.10609
530.19	0.10581
530.532	0.10539
530.875	0.10514
531.218	0.10484
531.56	0.10465
531.903	0.10435
532.246	0.1041
532.588	0.10379
532.93	0.1036
533.273	0.10321
533.615	0.10268
533.958	0.10232
534.3	0.10191
534.642	0.10134
534.984	0.10108
535.326	0.10074
535.669	0.10038
536.011	0.09974
536.353	0.09934
536.695	0.09887
537.037	0.09861
537.378	0.0982
537.72	0.09803
538.062	0.0976
538.404	0.09721
538.746	0.09655
539.087	0.09614
539.429	0.09564
539.77	0.09499
540.112	0.09424
540.454	0.09372
540.795	0.09339
541.136	0.09294
541.478	0.09239
541.819	0.09215
542.16	0.0918
542.502	0.09129
542.843	0.0908
543.184	0.09041
543.525	0.08977
543.866	0.08918
544.207	0.08863
544.548	0.08808
544.889	0.08731
545.23	0.08675
545.571	0.08611
545.911	0.08572
546.252	0.0853
546.593	0.08481
546.934	0.08453
547.274	0.08426
547.615	0.08377
547.955	0.08317
548.296	0.08259
548.636	0.0822
548.977	0.08168
549.317	0.08076
549.657	0.08032
549.997	0.0796
550.338	0.07895
550.678	0.0783
551.018	0.0782
551.358	0.0777
551.698	0.07731
552.038	0.07683
552.378	0.0763
552.718	0.07586
553.058	0.0753
553.398	0.07473
553.737	0.07443
554.077	0.07402
554.417	0.07354
554.756	0.0732
555.096	0.07279
555.435	0.0724
555.775	0.07202
556.114	0.07145
556.454	0.07139
556.793	0.07086
557.133	0.07053
557.472	0.07019
557.811	0.07003
558.15	0.06932
558.489	0.06889
558.829	0.06839
559.168	0.06814
559.507	0.06786
559.846	0.06751
560.184	0.06719
560.523	0.06682
560.862	0.06625
561.201	0.06585
561.54	0.06546
561.878	0.06495
562.217	0.06455
562.556	0.06419
562.894	0.06377
563.233	0.06344
563.571	0.06276
563.91	0.06259
564.248	0.06226
564.586	0.06213
564.925	0.06192
565.263	0.0616
565.601	0.06122
565.939	0.06086
566.277	0.06052
566.616	0.06028
566.954	0.06011
567.292	0.05984
567.63	0.05954
567.967	0.05933
568.305	0.05892
568.643	0.05855
568.981	0.05849
569.319	0.0582
569.656	0.05802
569.994	0.05772
570.331	0.05744
570.669	0.05729
571.006	0.05718
571.344	0.05681
571.681	0.05629
572.019	0.05595
572.356	0.05579
572.693	0.05565
573.03	0.05547
573.368	0.0551
573.705	0.05471
574.042	0.05425
574.379	0.05403
574.716	0.05376
575.053	0.0536
575.39	0.05349
575.727	0.05337
576.063	0.05302
576.4	0.05294
576.737	0.05271
577.074	0.0525
577.41	0.0522
577.747	0.05198
578.083	0.05152
578.42	0.05154
578.756	0.05135
579.093	0.0511
579.429	0.05071
579.766	0.0506
580.102	0.0504
580.438	0.05032
580.774	0.05029
581.11	0.05006
581.446	0.04987
581.782	0.04983
582.119	0.04949
582.454	0.04924
582.79	0.04909
583.126	0.04888
583.462	0.04864
583.798	0.04834
584.134	0.04813
584.469	0.04813
584.805	0.04803
585.141	0.04783
585.476	0.04745
585.812	0.04748
586.147	0.04742
586.482	0.04724
586.818	0.04707
587.153	0.04685
587.488	0.04666
587.824	0.0464
588.159	0.0463
588.494	0.04609
588.829	0.04599
589.164	0.04597
589.499	0.04584
589.834	0.04567
590.169	0.04543
590.504	0.04532
590.839	0.04529
591.174	0.04528
591.508	0.04514
591.843	0.04509
592.178	0.04498
592.512	0.04482
592.847	0.04461
593.181	0.04438
593.516	0.04449
593.85	0.04415
594.185	0.04411
594.519	0.04386
594.853	0.04372
595.187	0.04383
595.522	0.04365
595.856	0.04331
596.19	0.04306
596.524	0.04307
596.858	0.04281
597.192	0.04265
