Data from Au dilution 10 min_Absorbance_17-25-27-849.txt Node
Date: Fri Feb 03 17:25:27 EST 2023
User: UV-vis
Spectrometer: FLMS04918
Trigger mode: 0
Integration Time (sec): 1.000000E-3
Scans to average: 10
Electric dark correction enabled: true
Nonlinearity correction enabled: false
Boxcar width: 10
XAxis mode: Wavelengths
Number of Pixels in Spectrum: 2048
>>>>>Begin Spectral Data<<<<<
179.23	0.17144
179.611	0.27789
179.992	-0.1806
180.373	0.14435
180.754	0.26324
181.134	0.56619
181.515	0.70421
181.896	0.31293
182.276	2.15987
182.657	0.62839
183.038	0.06695
183.418	-0.15778
183.799	0.00045
184.179	-0
184.56	-0
184.94	1.36541
185.32	1.14304
185.701	0.80612
186.081	0.78452
186.461	0.86292
186.842	0.75153
187.222	0.67817
187.602	0.63609
187.982	0.63282
188.362	0.59925
188.742	0.60464
189.122	0.6065
189.502	0.59858
189.882	0.6003
190.262	0.59642
190.642	0.60142
191.022	0.59632
191.402	0.58365
191.781	0.58291
192.161	0.57165
192.541	0.56691
192.92	0.56752
193.3	0.57143
193.68	0.57216
194.059	0.56034
194.439	0.5526
194.818	0.55871
195.198	0.55314
195.577	0.56368
195.957	0.54651
196.336	0.55716
196.715	0.5569
197.094	0.56122
197.474	0.57323
197.853	0.56918
198.232	0.56886
198.611	0.56313
198.99	0.56422
199.369	0.56715
199.748	0.56656
200.127	0.56692
200.506	0.55906
200.885	0.54544
201.264	0.53492
201.643	0.54091
202.022	0.55023
202.401	0.55699
202.779	0.55813
203.158	0.56718
203.537	0.5694
203.915	0.5868
204.294	0.59546
204.673	0.60857
205.051	0.60817
205.43	0.60636
205.808	0.60765
206.187	0.61052
206.565	0.60703
206.943	0.61126
207.322	0.59963
207.7	0.60529
208.078	0.60984
208.456	0.61186
208.835	0.62323
209.213	0.62873
209.591	0.62265
209.969	0.61689
210.347	0.61102
210.725	0.6025
211.103	0.60044
211.481	0.60254
211.859	0.60597
212.237	0.59963
212.614	0.58632
212.992	0.57811
213.37	0.57377
213.748	0.58037
214.125	0.58464
214.503	0.58316
214.881	0.57623
215.258	0.5906
215.636	0.5838
216.013	0.57683
216.391	0.58208
216.768	0.57628
217.145	0.5795
217.523	0.58429
217.9	0.58087
218.277	0.57968
218.655	0.59448
219.032	0.59596
219.409	0.59291
219.786	0.58182
220.163	0.58136
220.54	0.58023
220.917	0.58385
221.294	0.57844
221.671	0.57229
222.048	0.56539
222.425	0.5694
222.802	0.5655
223.179	0.55494
223.556	0.56037
223.932	0.56224
224.309	0.56237
224.686	0.56769
225.062	0.56733
225.439	0.57915
225.815	0.57991
226.192	0.58216
226.568	0.57804
226.945	0.58328
227.321	0.58436
227.698	0.58951
228.074	0.59287
228.45	0.58472
228.827	0.58944
229.203	0.60008
229.579	0.60148
229.955	0.6106
230.331	0.61642
230.707	0.63079
231.083	0.65913
231.46	0.66524
231.835	0.66685
232.211	0.67707
232.587	0.68052
232.963	0.67927
233.339	0.67414
233.715	0.67258
234.091	0.67753
234.466	0.66985
234.842	0.67352
235.218	0.68867
235.593	0.68601
235.969	0.67899
236.344	0.70649
236.72	0.70503
237.095	0.69178
237.471	0.69539
237.846	0.70012
238.222	0.69318
238.597	0.68459
238.972	0.66251
239.348	0.6606
239.723	0.65789
240.098	0.65957
240.473	0.65866
240.848	0.67308
241.223	0.67622
241.598	0.6907
241.973	0.67762
242.348	0.68784
242.723	0.6905
243.098	0.68224
243.473	0.6869
243.848	0.69594
244.223	0.68388
244.597	0.69541
244.972	0.7091
245.347	0.70999
245.721	0.71432
246.096	0.72779
246.47	0.74326
246.845	0.74758
247.219	0.7436
247.594	0.74529
247.968	0.73312
248.343	0.73802
248.717	0.7416
249.091	0.74183
249.466	0.7451
249.84	0.75815
250.214	0.75165
250.588	0.75254
250.962	0.74542
251.336	0.74659
251.71	0.73841
252.084	0.73504
252.458	0.74087
252.832	0.74228
253.206	0.73698
253.58	0.73862
253.954	0.73459
254.328	0.73843
254.702	0.74213
255.075	0.75427
255.449	0.75703
255.823	0.7721
256.196	0.77136
256.57	0.76905
256.943	0.75858
257.317	0.75524
257.69	0.76623
258.064	0.7694
258.437	0.75697
258.81	0.77153
259.184	0.77254
259.557	0.78179
259.93	0.78694
260.303	0.78697
260.677	0.79208
261.05	0.81098
261.423	0.80492
261.796	0.80298
262.169	0.80452
262.542	0.80961
262.915	0.81004
263.288	0.81697
263.661	0.81551
264.033	0.80835
264.406	0.8074
264.779	0.8207
265.152	0.81611
265.524	0.81439
265.897	0.81675
266.27	0.83074
266.642	0.83086
267.015	0.84205
267.387	0.84679
267.76	0.86869
268.132	0.85436
268.504	0.85035
268.877	0.84013
269.249	0.84126
269.621	0.86262
269.994	0.86396
270.366	0.86816
270.738	0.8804
271.11	0.88964
271.482	0.89744
271.854	0.92798
272.226	0.92332
272.598	0.92323
272.97	0.94932
273.342	0.95941
273.714	0.97642
274.086	0.97359
274.458	0.99574
274.829	1.00385
275.201	1.01994
275.573	1.00843
275.944	1.02375
276.316	1.02496
276.688	1.05452
277.059	1.05884
277.431	1.0626
277.802	1.06725
278.173	1.08498
278.545	1.10583
278.916	1.14283
279.287	1.20858
279.659	1.26769
280.03	1.36169
280.401	1.45397
280.772	1.55964
281.143	1.65341
281.515	1.75029
281.886	1.84608
282.257	1.91581
282.628	1.98713
282.998	2.04414
283.369	2.10826
283.74	2.16959
284.111	2.23177
284.482	2.26659
284.853	2.30719
285.223	2.33374
285.594	2.36355
285.965	2.39289
286.335	2.40943
286.706	2.43121
287.076	2.43964
287.447	2.45249
287.817	2.46512
288.188	2.48086
288.558	2.47563
288.928	2.48046
289.299	2.48152
289.669	2.47732
290.039	2.47584
290.409	2.47172
290.779	2.47335
291.149	2.47301
291.52	2.4698
291.89	2.46307
292.26	2.45269
292.629	2.44455
292.999	2.43659
293.369	2.43022
293.739	2.41759
294.109	2.40868
294.479	2.394
294.848	2.38206
295.218	2.37451
295.588	2.36573
295.957	2.35376
296.327	2.34777
296.696	2.33747
297.066	2.32676
297.435	2.32159
297.805	2.31575
298.174	2.30931
298.544	2.3013
298.913	2.28929
299.282	2.27504
299.651	2.26005
300.021	2.25296
300.39	2.24568
300.759	2.23816
301.128	2.22889
301.497	2.22167
301.866	2.21363
302.235	2.20816
302.604	2.20085
302.973	2.19118
303.342	2.18309
303.71	2.17399
304.079	2.16585
304.448	2.1574
304.817	2.14937
305.185	2.1409
305.554	2.12984
305.923	2.11852
306.291	2.10701
306.66	2.09764
307.028	2.08947
307.397	2.08369
307.765	2.07438
308.133	2.06547
308.502	2.05752
308.87	2.05025
309.238	2.04201
309.606	2.03471
309.975	2.02785
310.343	2.02046
310.711	2.01431
311.079	2.00705
311.447	2.00275
311.815	1.99511
312.183	1.98852
312.551	1.98106
312.919	1.97363
313.286	1.96758
313.654	1.96308
314.022	1.95825
314.39	1.95354
314.757	1.94933
315.125	1.94299
315.492	1.93889
315.86	1.93352
316.228	1.92781
316.595	1.92162
316.962	1.91739
317.33	1.91253
317.697	1.9072
318.065	1.90309
318.432	1.89788
318.799	1.89237
319.166	1.88693
319.534	1.88222
319.901	1.8787
320.268	1.87449
320.635	1.87
321.002	1.86557
321.369	1.86129
321.736	1.85843
322.103	1.85539
322.47	1.85158
322.836	1.84861
323.203	1.84447
323.57	1.84154
323.937	1.83789
324.303	1.83471
324.67	1.83159
325.037	1.82818
325.403	1.82593
325.77	1.8232
326.136	1.8207
326.503	1.81872
326.869	1.81569
327.235	1.81488
327.602	1.81231
327.968	1.81042
328.334	1.80898
328.7	1.80707
329.067	1.80567
329.433	1.80341
329.799	1.80105
330.165	1.80027
330.531	1.79913
330.897	1.79763
331.263	1.79626
331.629	1.79643
331.995	1.79612
332.36	1.79509
332.726	1.79477
333.092	1.79377
333.458	1.79273
333.823	1.79229
334.189	1.79214
334.554	1.79277
334.92	1.79189
335.286	1.79217
335.651	1.79214
336.016	1.79278
336.382	1.79302
336.747	1.79331
337.113	1.79335
337.478	1.7934
337.843	1.7926
338.208	1.79208
338.573	1.79314
338.939	1.79337
339.304	1.79388
339.669	1.79509
340.034	1.79636
340.399	1.79671
340.764	1.79767
341.129	1.79815
341.493	1.79864
341.858	1.79926
342.223	1.79901
342.588	1.79979
342.952	1.80025
343.317	1.80274
343.682	1.80363
344.046	1.80471
344.411	1.80553
344.775	1.80726
345.14	1.80929
345.504	1.81017
345.869	1.81182
346.233	1.81358
346.597	1.81588
346.962	1.81663
347.326	1.81749
347.69	1.81854
348.054	1.82169
348.418	1.82382
348.782	1.82771
349.146	1.83077
349.51	1.83352
349.874	1.83659
350.238	1.83931
350.602	1.84298
350.966	1.84538
351.33	1.84831
351.693	1.85206
352.057	1.85551
352.421	1.85839
352.784	1.86202
353.148	1.86555
353.512	1.86931
353.875	1.87312
354.239	1.87722
354.602	1.88175
354.966	1.88436
355.329	1.88882
355.692	1.89158
356.056	1.89538
356.419	1.89956
356.782	1.90431
357.145	1.90901
357.508	1.91266
357.871	1.91772
358.234	1.92197
358.597	1.92632
358.96	1.93031
359.323	1.93587
359.686	1.93975
360.049	1.94452
360.412	1.94979
360.775	1.95807
361.137	1.96632
361.5	1.9709
361.863	1.97705
362.225	1.98436
362.588	1.99205
362.951	1.99786
363.313	2.00462
363.675	2.01167
364.038	2.01562
364.4	2.02064
364.763	2.02784
365.125	2.03494
365.487	2.04001
365.849	2.04693
366.212	2.05473
366.574	2.06106
366.936	2.0681
367.298	2.07641
367.66	2.08606
368.022	2.09296
368.384	2.0994
368.746	2.10449
369.108	2.11176
369.469	2.11936
369.831	2.12386
370.193	2.13236
370.555	2.13995
370.916	2.146
371.278	2.15175
371.64	2.16566
372.001	2.1767
372.363	2.18244
372.724	2.19239
373.086	2.204
373.447	2.21168
373.808	2.21835
374.17	2.22829
374.531	2.23436
374.892	2.24274
375.253	2.24714
375.615	2.25329
375.976	2.25978
376.337	2.26855
376.698	2.28128
377.059	2.28874
377.42	2.29833
377.781	2.30798
378.141	2.32001
378.502	2.3301
378.863	2.34268
379.224	2.34711
379.585	2.35436
379.945	2.3656
380.306	2.37975
380.666	2.38688
381.027	2.39662
381.388	2.40568
381.748	2.41752
382.108	2.43075
382.469	2.44002
382.829	2.45314
383.19	2.46561
383.55	2.47704
383.91	2.48726
384.27	2.49419
384.63	2.50741
384.991	2.51904
385.351	2.52581
385.711	2.54007
386.071	2.55595
386.431	2.56747
386.791	2.58051
387.15	2.58882
387.51	2.60609
387.87	2.60342
388.23	2.61332
388.589	2.62876
388.949	2.64268
389.309	2.65413
389.668	2.66412
390.028	2.67415
390.387	2.68309
390.747	2.69487
391.106	2.7037
391.466	2.71573
391.825	2.729
392.184	2.73589
392.544	2.7446
392.903	2.76289
393.262	2.75593
393.621	2.76866
393.98	2.77768
394.339	2.77687
394.698	2.78686
395.057	2.78859
395.416	2.8078
395.775	2.82676
396.134	2.82877
396.493	2.82945
396.852	2.834
397.211	2.83876
397.569	2.8295
397.928	2.83819
398.287	2.85289
398.645	2.85677
399.004	2.85821
399.362	2.85963
399.721	2.86101
400.079	2.86547
400.438	2.87244
400.796	2.8552
401.154	2.84424
401.512	2.83759
401.871	2.84599
402.229	2.84833
402.587	2.85162
402.945	2.85892
403.303	2.85022
403.661	2.85931
404.019	2.86233
404.377	2.86872
404.735	2.8745
405.093	2.90467
405.451	2.89159
405.808	2.87266
406.166	2.88404
406.524	2.87477
406.882	2.86651
407.239	2.86009
407.597	2.84775
407.954	2.85051
408.312	2.88024
408.669	2.88117
409.027	2.89433
409.384	2.89994
409.741	2.90215
410.099	2.90595
410.456	2.8969
410.813	2.89043
411.17	2.87999
411.527	2.88746
411.884	2.88413
412.242	2.86922
412.599	2.86827
412.956	2.87185
413.312	2.8715
413.669	2.84994
414.026	2.85067
414.383	2.85419
414.74	2.86636
415.096	2.87345
415.453	2.85241
415.81	2.84289
416.166	2.83897
416.523	2.81993
416.879	2.81019
417.236	2.79877
417.592	2.77851
417.949	2.77561
418.305	2.78778
418.661	2.78523
419.018	2.76301
419.374	2.75204
419.73	2.74701
420.086	2.72592
420.442	2.72751
420.798	2.72459
421.154	2.7285
421.51	2.73219
421.866	2.71461
422.222	2.693
422.578	2.68502
422.934	2.68317
423.29	2.66549
423.646	2.6573
424.001	2.6513
424.357	2.63006
424.713	2.60738
425.068	2.60212
425.424	2.59868
425.779	2.56853
426.135	2.52601
426.49	2.51492
426.845	2.48785
427.201	2.46105
427.556	2.45051
427.911	2.41805
428.266	2.40461
428.622	2.4002
428.977	2.3866
429.332	2.38638
429.687	2.3943
430.042	2.37977
430.397	2.36964
430.752	2.36586
431.107	2.36446
431.461	2.35889
431.816	2.35893
432.171	2.36678
432.526	2.37323
432.88	2.35369
433.235	2.35348
433.59	2.37934
433.944	2.37217
434.299	2.37743
434.653	2.38864
435.008	2.37965
435.362	2.37793
435.716	2.39019
436.071	2.37731
436.425	2.37317
436.779	2.36406
437.133	2.34704
437.487	2.34994
437.841	2.34057
438.195	2.33744
438.549	2.34614
438.903	2.34458
439.257	2.35243
439.611	2.35336
439.965	2.34133
440.319	2.3246
440.673	2.28276
441.026	2.27337
441.38	2.27222
441.734	2.262
442.087	2.26584
442.441	2.27868
442.794	2.29045
443.148	2.27304
443.501	2.25898
443.855	2.25631
444.208	2.24344
444.561	2.23806
444.915	2.23911
445.268	2.23362
445.621	2.23408
445.974	2.21744
446.327	2.20126
446.68	2.19399
447.033	2.18434
447.386	2.18051
447.739	2.19641
448.092	2.21481
448.445	2.20007
448.798	2.20195
449.15	2.2023
449.503	2.21865
449.856	2.2135
450.209	2.21112
450.561	2.21041
450.914	2.2193
451.266	2.21922
451.619	2.22067
451.971	2.20884
452.323	2.21208
452.676	2.21961
453.028	2.22785
453.38	2.23568
453.733	2.24915
454.085	2.25332
454.437	2.25156
454.789	2.24865
455.141	2.24531
455.493	2.23497
455.845	2.24218
456.197	2.24273
456.549	2.23836
456.901	2.21436
457.253	2.20288
457.604	2.20023
457.956	2.19271
458.308	2.17864
458.659	2.1663
459.011	2.16478
459.362	2.16883
459.714	2.15668
460.065	2.14746
460.417	2.12509
460.768	2.11053
461.12	2.09468
461.471	2.07721
461.822	2.07744
462.173	2.07219
462.525	2.06029
462.876	2.05595
463.227	2.04455
463.578	2.03757
463.929	2.03895
464.28	2.02514
464.631	2.01659
464.982	2.00442
465.332	1.99192
465.683	1.98651
466.034	1.97135
466.385	1.95572
466.735	1.9354
467.086	1.92132
467.437	1.91698
467.787	1.91261
468.138	1.90356
468.488	1.89386
468.839	1.88985
469.189	1.87811
469.539	1.8649
469.89	1.85984
470.24	1.85097
470.59	1.83857
470.94	1.82461
471.29	1.81181
471.64	1.80697
471.99	1.80101
472.34	1.78982
472.69	1.78464
473.04	1.77133
473.39	1.76566
473.74	1.76243
474.09	1.7628
474.439	1.75885
474.789	1.74497
475.139	1.74127
475.488	1.73385
475.838	1.72647
476.188	1.71702
476.537	1.70859
476.886	1.70233
477.236	1.69238
477.585	1.68484
477.935	1.679
478.284	1.66995
478.633	1.66151
478.982	1.64903
479.331	1.6394
479.68	1.63295
480.03	1.62468
480.379	1.62143
480.728	1.6129
481.076	1.60727
481.425	1.60036
481.774	1.59291
482.123	1.58485
482.472	1.57452
482.821	1.56703
483.169	1.56178
483.518	1.55479
483.866	1.54877
484.215	1.54199
484.563	1.53556
484.912	1.52942
485.26	1.52259
485.609	1.51693
485.957	1.50947
486.305	1.50455
486.654	1.49889
487.002	1.49314
487.35	1.48686
487.698	1.47879
488.046	1.47139
488.394	1.4628
488.742	1.45333
489.09	1.44476
489.438	1.43812
489.786	1.43182
490.134	1.42483
490.482	1.41863
490.829	1.41191
491.177	1.40454
491.525	1.39744
491.872	1.39058
492.22	1.38515
492.567	1.37801
492.915	1.37197
493.262	1.36631
493.61	1.36039
493.957	1.35401
494.304	1.34637
494.652	1.33973
494.999	1.33559
495.346	1.33222
495.693	1.32782
496.04	1.32493
496.387	1.32078
496.734	1.31619
497.081	1.31044
497.428	1.3068
497.775	1.30169
498.122	1.29712
498.469	1.29369
498.816	1.29029
499.162	1.28529
499.509	1.27998
499.856	1.27541
500.202	1.26976
500.549	1.26751
500.895	1.26284
501.242	1.25937
501.588	1.25655
501.935	1.2537
502.281	1.24901
502.627	1.24531
502.973	1.24174
503.32	1.23727
503.666	1.23303
504.012	1.22949
504.358	1.22591
504.704	1.22237
505.05	1.21785
505.396	1.2139
505.742	1.20909
506.088	1.20498
506.433	1.20146
506.779	1.19755
507.125	1.19533
507.471	1.19357
507.816	1.18935
508.162	1.18664
508.507	1.18339
508.853	1.17854
509.198	1.17488
509.544	1.17245
509.889	1.1692
510.234	1.16652
510.58	1.16322
510.925	1.16177
511.27	1.15943
511.615	1.15742
511.96	1.15428
512.306	1.15174
512.651	1.14949
512.996	1.1474
513.341	1.14486
513.685	1.1426
514.03	1.14013
514.375	1.13745
514.72	1.13465
515.065	1.13184
515.409	1.12932
515.754	1.1267
516.099	1.12556
516.443	1.12278
516.788	1.11998
517.132	1.11716
517.476	1.11435
517.821	1.11164
518.165	1.108
518.51	1.10496
518.854	1.10246
519.198	1.09981
519.542	1.09694
519.886	1.09453
520.23	1.09179
520.574	1.08869
520.918	1.08591
521.262	1.08354
521.606	1.08049
521.95	1.07749
522.294	1.07427
522.638	1.07105
522.981	1.06815
523.325	1.06479
523.669	1.0612
524.012	1.05782
524.356	1.05419
524.699	1.05116
525.043	1.04774
525.386	1.04444
525.73	1.04128
526.073	1.03805
526.416	1.03457
526.76	1.03126
527.103	1.02712
527.446	1.02348
527.789	1.02045
528.132	1.01727
528.475	1.0127
528.818	1.00891
529.161	1.0056
529.504	1.00183
529.847	0.99773
530.19	0.99386
530.532	0.98982
530.875	0.98582
531.218	0.98096
531.56	0.97731
531.903	0.9724
532.246	0.96861
532.588	0.96426
532.93	0.9598
533.273	0.95486
533.615	0.95017
533.958	0.94582
534.3	0.94138
534.642	0.93688
534.984	0.93209
535.326	0.92724
535.669	0.92323
536.011	0.91824
536.353	0.91296
536.695	0.90826
537.037	0.90401
537.378	0.89904
537.72	0.89435
538.062	0.88983
538.404	0.88573
538.746	0.88095
539.087	0.87616
539.429	0.87121
539.77	0.8664
540.112	0.86136
540.454	0.85678
540.795	0.85203
541.136	0.84704
541.478	0.84221
541.819	0.83774
542.16	0.83332
542.502	0.82903
542.843	0.82432
543.184	0.81999
543.525	0.81496
543.866	0.81
544.207	0.80539
544.548	0.80079
544.889	0.79597
545.23	0.79143
545.571	0.7867
545.911	0.78199
546.252	0.7772
546.593	0.77294
546.934	0.76829
547.274	0.76378
547.615	0.75913
547.955	0.75421
548.296	0.74923
548.636	0.74458
548.977	0.73975
549.317	0.73496
549.657	0.73001
549.997	0.72547
550.338	0.72105
550.678	0.71666
551.018	0.71318
551.358	0.70879
551.698	0.70457
552.038	0.70065
552.378	0.69643
552.718	0.69223
553.058	0.68825
553.398	0.68436
553.737	0.68009
554.077	0.67635
554.417	0.67257
554.756	0.66841
555.096	0.66443
555.435	0.66098
555.775	0.65767
556.114	0.65385
556.454	0.65011
556.793	0.64633
557.133	0.64246
557.472	0.63876
557.811	0.63518
558.15	0.63089
558.489	0.62735
558.829	0.62372
559.168	0.62008
559.507	0.61661
559.846	0.61317
560.184	0.60972
560.523	0.60622
560.862	0.60269
561.201	0.59902
561.54	0.59553
561.878	0.5922
562.217	0.58917
562.556	0.58592
562.894	0.58249
563.233	0.57937
563.571	0.57596
563.91	0.57257
564.248	0.56974
564.586	0.56651
564.925	0.56387
565.263	0.56087
565.601	0.55766
565.939	0.5545
566.277	0.55138
566.616	0.54832
566.954	0.54552
567.292	0.54262
567.63	0.53958
567.967	0.53667
568.305	0.53372
568.643	0.53103
568.981	0.52835
569.319	0.52557
569.656	0.523
569.994	0.52011
570.331	0.51736
570.669	0.51465
571.006	0.51227
571.344	0.50957
571.681	0.50685
572.019	0.50398
572.356	0.50135
572.693	0.49864
573.03	0.49616
573.368	0.49365
573.705	0.49104
574.042	0.48845
574.379	0.48593
574.716	0.48345
575.053	0.48131
575.39	0.47914
575.727	0.47678
576.063	0.4744
576.4	0.47215
576.737	0.46952
577.074	0.46741
577.41	0.46496
577.747	0.46269
578.083	0.46041
578.42	0.45818
578.756	0.45596
579.093	0.45385
579.429	0.45172
579.766	0.44963
580.102	0.44753
580.438	0.44529
580.774	0.44322
581.11	0.44106
581.446	0.43886
581.782	0.43708
582.119	0.43502
582.454	0.4327
582.79	0.43052
583.126	0.42858
583.462	0.42652
583.798	0.42481
584.134	0.42278
584.469	0.42107
584.805	0.41905
585.141	0.41718
585.476	0.41511
585.812	0.41354
586.147	0.41154
586.482	0.40961
586.818	0.40796
587.153	0.4062
587.488	0.40454
587.824	0.4029
588.159	0.4013
588.494	0.39959
588.829	0.39789
589.164	0.39584
589.499	0.39429
589.834	0.39275
590.169	0.39072
590.504	0.38888
590.839	0.38682
591.174	0.38523
591.508	0.38352
591.843	0.38215
592.178	0.38034
592.512	0.37885
592.847	0.37719
593.181	0.37555
593.516	0.37414
593.85	0.37244
594.185	0.37079
594.519	0.36906
594.853	0.36734
595.187	0.36587
595.522	0.36435
595.856	0.36261
596.19	0.36114
596.524	0.35968
596.858	0.35821
597.192	0.35695
597.526	0.35559
597.86	0.35434
