Data from Au dilution 20 min_Absorbance_17-42-05-634.txt Node
Date: Fri Feb 03 17:42:05 EST 2023
User: UV-vis
Spectrometer: FLMS04918
Trigger mode: 0
Integration Time (sec): 1.000000E-3
Scans to average: 10
Electric dark correction enabled: true
Nonlinearity correction enabled: false
Boxcar width: 10
XAxis mode: Wavelengths
Number of Pixels in Spectrum: 2048
>>>>>Begin Spectral Data<<<<<
179.23	-0.39635
179.611	-0.39577
179.992	-0.61501
180.373	-0.18716
180.754	-0.12402
181.134	0.02061
181.515	0.04252
181.896	0.00847
182.276	-0.35733
182.657	0.19703
183.038	-0.50556
183.418	-0.23399
183.799	0.11394
184.179	-0
184.56	0.42282
184.94	0.41758
185.32	0.44936
185.701	0.44754
186.081	0.49556
186.461	0.52535
186.842	0.49011
187.222	0.51004
187.602	0.48734
187.982	0.50369
188.362	0.51724
188.742	0.5139
189.122	0.53421
189.502	0.5416
189.882	0.56184
190.262	0.55656
190.642	0.56805
191.022	0.54643
191.402	0.54719
191.781	0.55856
192.161	0.56211
192.541	0.56138
192.92	0.56597
193.3	0.57061
193.68	0.5706
194.059	0.56393
194.439	0.56919
194.818	0.57598
195.198	0.56718
195.577	0.58741
195.957	0.57434
196.336	0.56491
196.715	0.57235
197.094	0.57371
197.474	0.56878
197.853	0.55363
198.232	0.55212
198.611	0.54782
198.99	0.55567
199.369	0.55466
199.748	0.55342
200.127	0.55402
200.506	0.55711
200.885	0.56352
201.264	0.5616
201.643	0.57309
202.022	0.59061
202.401	0.5866
202.779	0.58599
203.158	0.59172
203.537	0.58901
203.915	0.60588
204.294	0.61164
204.673	0.60951
205.051	0.60901
205.43	0.61474
205.808	0.61946
206.187	0.62975
206.565	0.63415
206.943	0.6249
207.322	0.6209
207.7	0.6159
208.078	0.63033
208.456	0.63046
208.835	0.62352
209.213	0.62142
209.591	0.6129
209.969	0.6046
210.347	0.60354
210.725	0.60047
211.103	0.60761
211.481	0.61286
211.859	0.60356
212.237	0.60563
212.614	0.60321
212.992	0.59762
213.37	0.59747
213.748	0.60801
214.125	0.60002
214.503	0.60025
214.881	0.61315
215.258	0.61842
215.636	0.62093
216.013	0.61046
216.391	0.62029
216.768	0.61767
217.145	0.62318
217.523	0.63235
217.9	0.62453
218.277	0.61442
218.655	0.62243
219.032	0.61598
219.409	0.60442
219.786	0.60103
220.163	0.60888
220.54	0.60145
220.917	0.60616
221.294	0.60177
221.671	0.59297
222.048	0.59387
222.425	0.59041
222.802	0.57497
223.179	0.57297
223.556	0.57032
223.932	0.56958
224.309	0.559
224.686	0.56492
225.062	0.56822
225.439	0.56798
225.815	0.56689
226.192	0.57075
226.568	0.56959
226.945	0.56888
227.321	0.57511
227.698	0.58555
228.074	0.58305
228.45	0.58206
228.827	0.58317
229.203	0.58305
229.579	0.57569
229.955	0.57545
230.331	0.58576
230.707	0.59965
231.083	0.60336
231.46	0.61295
231.835	0.61287
232.211	0.62997
232.587	0.63914
232.963	0.64451
233.339	0.64743
233.715	0.64866
234.091	0.65749
234.466	0.65764
234.842	0.65376
235.218	0.65671
235.593	0.6542
235.969	0.66014
236.344	0.68188
236.72	0.68822
237.095	0.68829
237.471	0.69248
237.846	0.69897
238.222	0.6897
238.597	0.68499
238.972	0.69029
239.348	0.69478
239.723	0.70305
240.098	0.69762
240.473	0.68349
240.848	0.67241
241.223	0.67274
241.598	0.6919
241.973	0.68382
242.348	0.68676
242.723	0.70045
243.098	0.70722
243.473	0.7007
243.848	0.69803
244.223	0.68379
244.597	0.67929
244.972	0.68516
245.347	0.70154
245.721	0.70505
246.096	0.71757
246.47	0.7332
246.845	0.73016
247.219	0.72469
247.594	0.71506
247.968	0.70612
248.343	0.71773
248.717	0.72279
249.091	0.71417
249.466	0.69818
249.84	0.70571
250.214	0.69464
250.588	0.68758
250.962	0.67834
251.336	0.69314
251.71	0.6885
252.084	0.69195
252.458	0.70197
252.832	0.70429
253.206	0.69776
253.58	0.69778
253.954	0.68554
254.328	0.68947
254.702	0.69152
255.075	0.69805
255.449	0.70709
255.823	0.71255
256.196	0.70626
256.57	0.71231
256.943	0.71335
257.317	0.71783
257.69	0.72857
258.064	0.73277
258.437	0.73394
258.81	0.74182
259.184	0.73549
259.557	0.73609
259.93	0.73718
260.303	0.73436
260.677	0.74118
261.05	0.75189
261.423	0.75634
261.796	0.75642
262.169	0.75311
262.542	0.75672
262.915	0.76089
263.288	0.76429
263.661	0.77225
264.033	0.77565
264.406	0.77899
264.779	0.78906
265.152	0.79524
265.524	0.79604
265.897	0.80057
266.27	0.80505
266.642	0.80544
267.015	0.81417
267.387	0.8179
267.76	0.83738
268.132	0.84219
268.504	0.83659
268.877	0.83473
269.249	0.84152
269.621	0.85639
269.994	0.86432
270.366	0.87945
270.738	0.88831
271.11	0.88982
271.482	0.89642
271.854	0.91135
272.226	0.91834
272.598	0.92754
272.97	0.94299
273.342	0.95054
273.714	0.96523
274.086	0.96582
274.458	0.98869
274.829	0.98636
275.201	0.99983
275.573	0.99702
275.944	1.00405
276.316	1.01978
276.688	1.03741
277.059	1.04762
277.431	1.06507
277.802	1.06715
278.173	1.07261
278.545	1.09836
278.916	1.14369
279.287	1.19987
279.659	1.2719
280.03	1.35467
280.401	1.4457
280.772	1.54474
281.143	1.64767
281.515	1.75106
281.886	1.84874
282.257	1.93319
282.628	2.01867
282.998	2.08841
283.369	2.14977
283.74	2.21023
284.111	2.26366
284.482	2.30302
284.853	2.33823
285.223	2.36789
285.594	2.40118
285.965	2.42697
286.335	2.44527
286.706	2.46051
287.076	2.47212
287.447	2.48485
287.817	2.4975
288.188	2.5112
288.558	2.50725
288.928	2.50944
289.299	2.5068
289.669	2.50409
290.039	2.49984
290.409	2.49653
290.779	2.4981
291.149	2.49588
291.52	2.48519
291.89	2.47874
292.26	2.47008
292.629	2.46066
292.999	2.45321
293.369	2.44469
293.739	2.43492
294.109	2.42746
294.479	2.41807
294.848	2.40962
295.218	2.40029
295.588	2.38786
295.957	2.37666
296.327	2.37138
296.696	2.36046
297.066	2.3499
297.435	2.34563
297.805	2.33896
298.174	2.33114
298.544	2.32036
298.913	2.31095
299.282	2.30071
299.651	2.28802
300.021	2.28287
300.39	2.27709
300.759	2.2691
301.128	2.26261
301.497	2.25692
301.866	2.24701
302.235	2.23976
302.604	2.23259
302.973	2.22589
303.342	2.21924
303.71	2.21148
304.079	2.20537
304.448	2.19687
304.817	2.19004
305.185	2.18343
305.554	2.17483
305.923	2.16706
306.291	2.158
306.66	2.14993
307.028	2.14376
307.397	2.13966
307.765	2.13046
308.133	2.12312
308.502	2.11664
308.87	2.10935
309.238	2.10268
309.606	2.09792
309.975	2.09201
310.343	2.08641
310.711	2.08102
311.079	2.07554
311.447	2.07047
311.815	2.06366
312.183	2.0589
312.551	2.05267
312.919	2.04534
313.286	2.03887
313.654	2.03325
314.022	2.02841
314.39	2.0233
314.757	2.02073
315.125	2.01435
315.492	2.00973
315.86	2.00437
316.228	1.99781
316.595	1.99291
316.962	1.98789
317.33	1.98205
317.697	1.97644
318.065	1.97024
318.432	1.96376
318.799	1.95801
319.166	1.95127
319.534	1.94669
319.901	1.94028
320.268	1.93604
320.635	1.92998
321.002	1.92434
321.369	1.91975
321.736	1.91563
322.103	1.91278
322.47	1.90665
322.836	1.90253
323.203	1.89804
323.57	1.89352
323.937	1.88936
324.303	1.88389
324.67	1.87867
325.037	1.87417
325.403	1.87039
325.77	1.86678
326.136	1.86285
326.503	1.85912
326.869	1.85596
327.235	1.85251
327.602	1.84981
327.968	1.84589
328.334	1.84312
328.7	1.8395
329.067	1.83497
329.433	1.83172
329.799	1.82712
330.165	1.82407
330.531	1.82034
330.897	1.81656
331.263	1.81342
331.629	1.81002
331.995	1.80715
332.36	1.80417
332.726	1.80132
333.092	1.79794
333.458	1.79483
333.823	1.79243
334.189	1.78938
334.554	1.78641
334.92	1.78236
335.286	1.77918
335.651	1.77701
336.016	1.77404
336.382	1.77239
336.747	1.77022
337.113	1.76715
337.478	1.76381
337.843	1.76051
338.208	1.75754
338.573	1.7549
338.939	1.75191
339.304	1.74964
339.669	1.74765
340.034	1.74591
340.399	1.74331
340.764	1.74129
341.129	1.73899
341.493	1.736
341.858	1.73392
342.223	1.73185
342.588	1.72987
342.952	1.72842
343.317	1.72732
343.682	1.72566
344.046	1.7232
344.411	1.72096
344.775	1.72021
345.14	1.71889
345.504	1.71773
345.869	1.71689
346.233	1.71564
346.597	1.71385
346.962	1.71263
347.326	1.71105
347.69	1.70938
348.054	1.70901
348.418	1.70791
348.782	1.70654
349.146	1.70598
349.51	1.70528
349.874	1.7037
350.238	1.70347
350.602	1.70198
350.966	1.70044
351.33	1.6992
351.693	1.69863
352.057	1.69866
352.421	1.69722
352.784	1.69653
353.148	1.6958
353.512	1.69513
353.875	1.69532
354.239	1.69462
354.602	1.69444
354.966	1.69395
355.329	1.6934
355.692	1.6923
356.056	1.69235
356.419	1.69272
356.782	1.69272
357.145	1.69208
357.508	1.69213
357.871	1.69208
358.234	1.69229
358.597	1.69211
358.96	1.69309
359.323	1.69435
359.686	1.69483
360.049	1.69481
360.412	1.69512
360.775	1.6962
361.137	1.69593
361.5	1.69664
361.863	1.69788
362.225	1.6993
362.588	1.70081
362.951	1.70206
363.313	1.70397
363.675	1.70494
364.038	1.70581
364.4	1.70703
364.763	1.709
365.125	1.71106
365.487	1.71311
365.849	1.715
366.212	1.71731
366.574	1.7192
366.936	1.72056
367.298	1.72192
367.66	1.72362
368.022	1.72666
368.384	1.72822
368.746	1.73198
369.108	1.73377
369.469	1.73675
369.831	1.73919
370.193	1.74156
370.555	1.74538
370.916	1.74705
371.278	1.7494
371.64	1.75448
372.001	1.75756
372.363	1.75944
372.724	1.76345
373.086	1.76711
373.447	1.77003
373.808	1.77371
374.17	1.77697
374.531	1.7805
374.892	1.78494
375.253	1.78843
375.615	1.79161
375.976	1.79615
376.337	1.80013
376.698	1.80418
377.059	1.80893
377.42	1.81246
377.781	1.81723
378.141	1.82089
378.502	1.82648
378.863	1.83163
379.224	1.83502
379.585	1.83946
379.945	1.84631
380.306	1.85196
380.666	1.85551
381.027	1.86206
381.388	1.8673
381.748	1.87304
382.108	1.87875
382.469	1.88389
382.829	1.89065
383.19	1.89663
383.55	1.90258
383.91	1.90828
384.27	1.91447
384.63	1.92094
384.991	1.92852
385.351	1.93427
385.711	1.94227
386.071	1.94855
386.431	1.95594
386.791	1.96224
387.15	1.96893
387.51	1.97548
387.87	1.98106
388.23	1.98844
388.589	1.99484
388.949	2.00236
389.309	2.01022
389.668	2.0186
390.028	2.02531
390.387	2.03188
390.747	2.04011
391.106	2.04826
391.466	2.05605
391.825	2.06497
392.184	2.07249
392.544	2.08009
392.903	2.08777
393.262	2.09159
393.621	2.10108
393.98	2.10929
394.339	2.11746
394.698	2.12535
395.057	2.13447
395.416	2.1437
395.775	2.1539
396.134	2.16461
396.493	2.17045
396.852	2.17799
397.211	2.18176
397.569	2.18882
397.928	2.20127
398.287	2.21099
398.645	2.21696
399.004	2.22471
399.362	2.23161
399.721	2.23973
400.079	2.24669
400.438	2.25771
400.796	2.27021
401.154	2.27598
401.512	2.28476
401.871	2.29491
402.229	2.30755
402.587	2.31841
402.945	2.32605
403.303	2.3346
403.661	2.34302
404.019	2.35342
404.377	2.36185
404.735	2.38012
405.093	2.40108
405.451	2.40983
405.808	2.41753
406.166	2.43328
406.524	2.44143
406.882	2.45632
407.239	2.46629
407.597	2.48018
407.954	2.49299
408.312	2.50179
408.669	2.51276
409.027	2.52856
409.384	2.54025
409.741	2.55852
410.099	2.56713
410.456	2.5817
410.813	2.59476
411.17	2.60261
411.527	2.60913
411.884	2.62648
412.242	2.63316
412.599	2.62795
412.956	2.6368
413.312	2.64454
413.669	2.641
414.026	2.65746
414.383	2.66007
414.74	2.66146
415.096	2.65789
415.453	2.65854
415.81	2.66541
416.166	2.66369
416.523	2.6588
416.879	2.66044
417.236	2.64811
417.592	2.64716
417.949	2.6444
418.305	2.6442
418.661	2.64049
419.018	2.64698
419.374	2.62491
419.73	2.61522
420.086	2.61593
420.442	2.60766
420.798	2.60627
421.154	2.60926
421.51	2.59917
421.866	2.58869
422.222	2.59005
422.578	2.59781
422.934	2.59031
423.29	2.57833
423.646	2.57537
424.001	2.56916
424.357	2.5641
424.713	2.5455
425.068	2.5297
425.424	2.53808
425.779	2.51324
426.135	2.4963
426.49	2.47628
426.845	2.47692
427.201	2.45607
427.556	2.43311
427.911	2.40859
428.266	2.38114
428.622	2.35967
428.977	2.34403
429.332	2.33748
429.687	2.33369
430.042	2.32006
430.397	2.30778
430.752	2.29157
431.107	2.28887
431.461	2.27723
431.816	2.2597
432.171	2.26711
432.526	2.27867
432.88	2.2573
433.235	2.25674
433.59	2.2706
433.944	2.25615
434.299	2.2541
434.653	2.2565
435.008	2.25285
435.362	2.25255
435.716	2.25987
436.071	2.26503
436.425	2.27456
436.779	2.27271
437.133	2.25696
437.487	2.23811
437.841	2.22688
438.195	2.23109
438.549	2.22182
438.903	2.22073
439.257	2.2281
439.611	2.21489
439.965	2.18484
440.319	2.17256
440.673	2.1499
441.026	2.12916
441.38	2.13812
441.734	2.12245
442.087	2.12303
442.441	2.12624
442.794	2.12525
443.148	2.11777
443.501	2.11623
443.855	2.10607
444.208	2.09649
444.561	2.09412
444.915	2.08866
445.268	2.08424
445.621	2.08109
445.974	2.0868
446.327	2.08253
446.68	2.06776
447.033	2.05857
447.386	2.07556
447.739	2.0806
448.092	2.09962
448.445	2.08618
448.798	2.08037
449.15	2.07951
449.503	2.08119
449.856	2.07857
450.209	2.07329
450.561	2.06732
450.914	2.05558
451.266	2.04666
451.619	2.03584
451.971	2.0241
452.323	2.03032
452.676	2.02915
453.028	2.02871
453.38	2.01939
453.733	2.00976
454.085	2.00482
454.437	1.99586
454.789	1.98447
455.141	1.97008
455.493	1.95098
455.845	1.94765
456.197	1.94229
456.549	1.93392
456.901	1.91443
457.253	1.90774
457.604	1.90805
457.956	1.90625
458.308	1.8984
458.659	1.88944
459.011	1.8878
459.362	1.8821
459.714	1.87407
460.065	1.86355
460.417	1.85204
460.768	1.83744
461.12	1.83109
461.471	1.82425
461.822	1.82464
462.173	1.81346
462.525	1.8081
462.876	1.80369
463.227	1.79915
463.578	1.79293
463.929	1.78911
464.28	1.78692
464.631	1.77894
464.982	1.77091
465.332	1.76108
465.683	1.75358
466.034	1.74668
466.385	1.73695
466.735	1.72728
467.086	1.71819
467.437	1.71604
467.787	1.70991
468.138	1.70728
468.488	1.70412
468.839	1.69911
469.189	1.69372
469.539	1.69077
469.89	1.68212
470.24	1.67819
470.59	1.66989
470.94	1.66249
471.29	1.659
471.64	1.6499
471.99	1.64406
472.34	1.63164
472.69	1.62733
473.04	1.61995
473.39	1.61572
473.74	1.61284
474.09	1.61094
474.439	1.60592
474.789	1.59969
475.139	1.59494
475.488	1.59093
475.838	1.58466
476.188	1.579
476.537	1.57352
476.886	1.5662
477.236	1.56119
477.585	1.55547
477.935	1.55088
478.284	1.54404
478.633	1.53535
478.982	1.53021
479.331	1.52407
479.68	1.52186
480.03	1.51513
480.379	1.51361
480.728	1.50868
481.076	1.50345
481.425	1.4989
481.774	1.49281
482.123	1.48594
482.472	1.48142
482.821	1.47784
483.169	1.47229
483.518	1.46604
483.866	1.45983
484.215	1.45462
484.563	1.44941
484.912	1.44406
485.26	1.43938
485.609	1.43601
485.957	1.43165
486.305	1.42729
486.654	1.42245
487.002	1.41865
487.35	1.41318
487.698	1.40776
488.046	1.40283
488.394	1.39507
488.742	1.38808
489.09	1.38195
489.438	1.37628
489.786	1.36868
490.134	1.3608
490.482	1.35411
490.829	1.34838
491.177	1.34192
491.525	1.33688
491.872	1.3314
492.22	1.32527
492.567	1.31933
492.915	1.31184
493.262	1.30578
493.61	1.30031
493.957	1.29394
494.304	1.28717
494.652	1.28081
494.999	1.27541
495.346	1.26873
495.693	1.26529
496.04	1.26089
496.387	1.25726
496.734	1.25303
497.081	1.24876
497.428	1.24423
497.775	1.23997
498.122	1.23618
498.469	1.23225
498.816	1.22732
499.162	1.2228
499.509	1.21824
499.856	1.21329
500.202	1.2093
500.549	1.20529
500.895	1.19995
501.242	1.19636
501.588	1.1921
501.935	1.18775
502.281	1.18368
502.627	1.18013
502.973	1.17623
503.32	1.17197
503.666	1.1661
504.012	1.16127
504.358	1.15661
504.704	1.15288
505.05	1.14854
505.396	1.14336
505.742	1.13953
506.088	1.13583
506.433	1.13251
506.779	1.12894
507.125	1.12504
507.471	1.12147
507.816	1.11749
508.162	1.11502
508.507	1.11149
508.853	1.1072
509.198	1.10434
509.544	1.10005
509.889	1.09616
510.234	1.09252
510.58	1.08855
510.925	1.08641
511.27	1.08359
511.615	1.07995
511.96	1.07619
512.306	1.07289
512.651	1.06933
512.996	1.06601
513.341	1.06221
513.685	1.05826
514.03	1.05405
514.375	1.05084
514.72	1.0473
515.065	1.04407
515.409	1.03977
515.754	1.03642
516.099	1.03362
516.443	1.03031
516.788	1.0271
517.132	1.02398
517.476	1.02064
517.821	1.0176
518.165	1.01387
518.51	1.01071
518.854	1.00772
519.198	1.00455
519.542	1.00111
519.886	0.9988
520.23	0.99522
520.574	0.99183
520.918	0.9885
521.262	0.98552
521.606	0.98252
521.95	0.97921
522.294	0.97574
522.638	0.97307
522.981	0.9695
523.325	0.96589
523.669	0.9625
524.012	0.95936
524.356	0.95613
524.699	0.95281
525.043	0.94931
525.386	0.94602
525.73	0.94276
526.073	0.9399
526.416	0.93632
526.76	0.93305
527.103	0.92942
527.446	0.92596
527.789	0.92302
528.132	0.92014
528.475	0.91675
528.818	0.91334
529.161	0.91009
529.504	0.90685
529.847	0.90343
530.19	0.90005
530.532	0.89695
530.875	0.89374
531.218	0.89011
531.56	0.88665
531.903	0.88297
532.246	0.87948
532.588	0.87605
532.93	0.87246
533.273	0.8687
533.615	0.8654
533.958	0.8619
534.3	0.858
534.642	0.85463
534.984	0.85105
535.326	0.84719
535.669	0.84384
536.011	0.84022
536.353	0.83649
536.695	0.83251
537.037	0.82892
537.378	0.82551
537.72	0.82188
538.062	0.81812
538.404	0.8147
538.746	0.81091
539.087	0.8075
539.429	0.80376
539.77	0.80019
540.112	0.79635
540.454	0.79304
540.795	0.78951
541.136	0.78588
541.478	0.78255
541.819	0.77935
542.16	0.7761
542.502	0.77264
542.843	0.76927
543.184	0.76628
543.525	0.76297
543.866	0.75976
544.207	0.7564
544.548	0.75262
544.889	0.74919
545.23	0.74571
545.571	0.74224
545.911	0.73892
546.252	0.73531
546.593	0.73194
546.934	0.72851
547.274	0.72521
547.615	0.72153
547.955	0.71824
548.296	0.71489
548.636	0.71159
548.977	0.70787
549.317	0.7044
549.657	0.70159
549.997	0.69807
550.338	0.69444
550.678	0.69095
551.018	0.68798
551.358	0.68462
551.698	0.68172
552.038	0.67863
552.378	0.67547
552.718	0.67215
553.058	0.6692
553.398	0.66639
553.737	0.66358
554.077	0.66063
554.417	0.65781
554.756	0.65498
555.096	0.6519
555.435	0.64901
555.775	0.64639
556.114	0.64354
556.454	0.64042
556.793	0.63716
557.133	0.63444
557.472	0.63139
557.811	0.62873
558.15	0.62547
558.489	0.62272
558.829	0.61994
559.168	0.61705
559.507	0.61466
559.846	0.61226
560.184	0.60955
560.523	0.60689
560.862	0.60448
561.201	0.60159
561.54	0.59922
561.878	0.5964
562.217	0.59391
562.556	0.59118
562.894	0.58833
563.233	0.58588
563.571	0.58334
563.91	0.58067
564.248	0.57819
564.586	0.57599
564.925	0.57369
565.263	0.57134
565.601	0.56895
565.939	0.56648
566.277	0.56403
566.616	0.56155
566.954	0.55912
567.292	0.55691
567.63	0.55446
567.967	0.55192
568.305	0.5498
568.643	0.54746
568.981	0.54532
569.319	0.54294
569.656	0.54086
569.994	0.53867
570.331	0.53662
570.669	0.53426
571.006	0.53215
571.344	0.5298
571.681	0.5273
572.019	0.52522
572.356	0.52313
572.693	0.52097
573.03	0.51882
573.368	0.51677
573.705	0.51475
574.042	0.51265
574.379	0.51034
574.716	0.50831
575.053	0.50648
575.39	0.50458
575.727	0.50238
576.063	0.50037
576.4	0.49882
576.737	0.49666
577.074	0.49489
577.41	0.49286
577.747	0.49114
578.083	0.48933
578.42	0.48754
578.756	0.48578
579.093	0.48389
579.429	0.48214
579.766	0.48016
580.102	0.4784
580.438	0.47641
580.774	0.47423
581.11	0.47222
581.446	0.47029
581.782	0.46855
582.119	0.46661
582.454	0.46462
582.79	0.46278
583.126	0.46106
583.462	0.45905
583.798	0.45736
584.134	0.45529
584.469	0.45368
584.805	0.45196
585.141	0.45022
585.476	0.44848
585.812	0.44685
586.147	0.44504
586.482	0.44314
586.818	0.44159
587.153	0.43981
587.488	0.43839
587.824	0.43702
588.159	0.43535
588.494	0.43391
588.829	0.43226
589.164	0.43077
589.499	0.42927
589.834	0.4276
590.169	0.42589
590.504	0.42408
590.839	0.42262
591.174	0.42134
591.508	0.41965
591.843	0.41827
592.178	0.41671
592.512	0.41516
592.847	0.41384
593.181	0.41223
593.516	0.41102
593.85	0.40962
594.185	0.40815
594.519	0.40657
594.853	0.40494
595.187	0.40378
595.522	0.40226
595.856	0.40081
596.19	0.39906
596.524	0.39766
596.858	0.3964
597.192	0.39516
597.526	0.39395
597.86	0.39252
