Data from AuNP_Jan1_slurryTest_532nm_50mJ_600s_Absorbance_12-20-33-944.txt Node
Date: Mon Jan 30 12:20:33 EST 2023
User: UV-vis
Spectrometer: FLMS04918
Trigger mode: 0
Integration Time (sec): 1.080000E-3
Scans to average: 10
Electric dark correction enabled: true
Nonlinearity correction enabled: false
Boxcar width: 10
XAxis mode: Wavelengths
Number of Pixels in Spectrum: 2048
>>>>>Begin Spectral Data<<<<<
179.23	0.23341
179.611	0.29543
179.992	0.65352
180.373	0.49895
180.754	-0
181.134	0.79512
181.515	0.41458
181.896	0.25873
182.276	0.75967
182.657	0.47144
183.038	0.30294
183.418	0.11842
183.799	0.03856
184.179	0.29974
184.56	0.29946
184.94	0.24407
185.32	0.25852
185.701	0.28195
186.081	0.31079
186.461	0.31335
186.842	0.35332
187.222	0.35731
187.602	0.37866
187.982	0.38778
188.362	0.38508
188.742	0.39815
189.122	0.39012
189.502	0.38061
189.882	0.37492
190.262	0.37762
190.642	0.37625
191.022	0.37443
191.402	0.37087
191.781	0.371
192.161	0.38196
192.541	0.39041
192.92	0.40468
193.3	0.4045
193.68	0.40314
194.059	0.39876
194.439	0.39439
194.818	0.39392
195.198	0.3923
195.577	0.38545
195.957	0.39067
196.336	0.39159
196.715	0.39525
197.094	0.39795
197.474	0.4027
197.853	0.40633
198.232	0.40785
198.611	0.40088
198.99	0.40721
199.369	0.40361
199.748	0.40499
200.127	0.39885
200.506	0.39804
200.885	0.39717
201.264	0.40282
201.643	0.40173
202.022	0.39787
202.401	0.40042
202.779	0.39442
203.158	0.39325
203.537	0.39968
203.915	0.38923
204.294	0.38902
204.673	0.37857
205.051	0.37629
205.43	0.3802
205.808	0.37808
206.187	0.37972
206.565	0.3845
206.943	0.37698
207.322	0.38098
207.7	0.38638
208.078	0.38978
208.456	0.38411
208.835	0.38175
209.213	0.37929
209.591	0.3869
209.969	0.39809
210.347	0.40433
210.725	0.40458
211.103	0.41154
211.481	0.406
211.859	0.41922
212.237	0.42296
212.614	0.4291
212.992	0.43165
213.37	0.42904
213.748	0.44136
214.125	0.44378
214.503	0.44965
214.881	0.45466
215.258	0.46229
215.636	0.46048
216.013	0.45533
216.391	0.46515
216.768	0.46781
217.145	0.46762
217.523	0.46497
217.9	0.45623
218.277	0.44925
218.655	0.44982
219.032	0.44263
219.409	0.44579
219.786	0.43418
220.163	0.43734
220.54	0.44452
220.917	0.4508
221.294	0.44868
221.671	0.43844
222.048	0.43825
222.425	0.4378
222.802	0.43255
223.179	0.4321
223.556	0.42956
223.932	0.43552
224.309	0.4313
224.686	0.43373
225.062	0.43776
225.439	0.43582
225.815	0.43784
226.192	0.43862
226.568	0.44292
226.945	0.44379
227.321	0.44897
227.698	0.45663
228.074	0.44924
228.45	0.43778
228.827	0.43286
229.203	0.43747
229.579	0.43554
229.955	0.43825
230.331	0.43426
230.707	0.43652
231.083	0.43877
231.46	0.4382
231.835	0.43741
232.211	0.43555
232.587	0.43748
232.963	0.433
233.339	0.43434
233.715	0.43572
234.091	0.44428
234.466	0.44644
234.842	0.45018
235.218	0.44601
235.593	0.45165
235.969	0.45681
236.344	0.46386
236.72	0.46939
237.095	0.46283
237.471	0.46302
237.846	0.46423
238.222	0.47635
238.597	0.48427
238.972	0.48016
239.348	0.47723
239.723	0.47566
240.098	0.47921
240.473	0.47503
240.848	0.4802
241.223	0.4847
241.598	0.48193
241.973	0.48382
242.348	0.48846
242.723	0.48695
243.098	0.4813
243.473	0.47406
243.848	0.47672
244.223	0.48293
244.597	0.48408
244.972	0.48848
245.347	0.49957
245.721	0.49573
246.096	0.48905
246.47	0.48794
246.845	0.48765
247.219	0.49939
247.594	0.50639
247.968	0.51139
248.343	0.51033
248.717	0.50923
249.091	0.50863
249.466	0.51644
249.84	0.51231
250.214	0.51226
250.588	0.5237
250.962	0.53488
251.336	0.54689
251.71	0.54922
252.084	0.53985
252.458	0.53443
252.832	0.53344
253.206	0.5354
253.58	0.54354
253.954	0.54916
254.328	0.55035
254.702	0.56072
255.075	0.5592
255.449	0.55734
255.823	0.55675
256.196	0.56643
256.57	0.5705
256.943	0.57216
257.317	0.56819
257.69	0.57367
258.064	0.57468
258.437	0.57471
258.81	0.5759
259.184	0.57916
259.557	0.57616
259.93	0.58263
260.303	0.58972
260.677	0.59796
261.05	0.5968
261.423	0.597
261.796	0.60022
262.169	0.60431
262.542	0.59861
262.915	0.60164
263.288	0.61542
263.661	0.62128
264.033	0.61826
264.406	0.63317
264.779	0.63903
265.152	0.64396
265.524	0.64353
265.897	0.64923
266.27	0.65221
266.642	0.65755
267.015	0.65428
267.387	0.66582
267.76	0.67861
268.132	0.68362
268.504	0.68547
268.877	0.68842
269.249	0.69592
269.621	0.69804
269.994	0.69973
270.366	0.70792
270.738	0.71539
271.11	0.72237
271.482	0.72078
271.854	0.73153
272.226	0.7256
272.598	0.72821
272.97	0.74675
273.342	0.76416
273.714	0.76934
274.086	0.76721
274.458	0.77598
274.829	0.78669
275.201	0.78698
275.573	0.79762
275.944	0.80519
276.316	0.8141
276.688	0.82095
277.059	0.82456
277.431	0.83776
277.802	0.85323
278.173	0.87783
278.545	0.91428
278.916	0.95156
279.287	1.01655
279.659	1.09427
280.03	1.19377
280.401	1.29231
280.772	1.38727
281.143	1.48942
281.515	1.58458
281.886	1.68069
282.257	1.76647
282.628	1.84394
282.998	1.9191
283.369	1.99023
283.74	2.05466
284.111	2.11803
284.482	2.17676
284.853	2.23669
285.223	2.27897
285.594	2.31962
285.965	2.35416
286.335	2.388
286.706	2.41673
287.076	2.45272
287.447	2.48002
287.817	2.49554
288.188	2.52987
288.558	2.55418
288.928	2.57132
289.299	2.58793
289.669	2.60184
290.039	2.61338
290.409	2.62462
290.779	2.63425
291.149	2.6277
291.52	2.63009
291.89	2.6327
292.26	2.62948
292.629	2.62141
292.999	2.61898
293.369	2.62502
293.739	2.62265
294.109	2.6126
294.479	2.60699
294.848	2.60724
295.218	2.60069
295.588	2.59842
295.957	2.58737
296.327	2.57546
296.696	2.56617
297.066	2.56162
297.435	2.56074
297.805	2.55811
298.174	2.55243
298.544	2.54258
298.913	2.53965
299.282	2.5391
299.651	2.53055
300.021	2.52507
300.39	2.52562
300.759	2.52456
301.128	2.51511
301.497	2.50981
301.866	2.5059
302.235	2.49679
302.604	2.49142
302.973	2.48704
303.342	2.47638
303.71	2.4704
304.079	2.46579
304.448	2.45783
304.817	2.44525
305.185	2.43708
305.554	2.42548
305.923	2.41829
306.291	2.41182
306.66	2.4036
307.028	2.39227
307.397	2.38284
307.765	2.37201
308.133	2.35842
308.502	2.35023
308.87	2.34339
309.238	2.33594
309.606	2.32649
309.975	2.32152
310.343	2.30588
310.711	2.29893
311.079	2.29394
311.447	2.28606
311.815	2.27892
312.183	2.27123
312.551	2.26321
312.919	2.2543
313.286	2.24621
313.654	2.23747
314.022	2.22947
314.39	2.21999
314.757	2.21017
315.125	2.20002
315.492	2.19298
315.86	2.18598
316.228	2.17547
316.595	2.1655
316.962	2.15433
317.33	2.14773
317.697	2.13907
318.065	2.13168
318.432	2.12235
318.799	2.11308
319.166	2.10176
319.534	2.09257
319.901	2.08216
320.268	2.07649
320.635	2.06567
321.002	2.05689
321.369	2.04697
321.736	2.0381
322.103	2.0288
322.47	2.02055
322.836	2.01239
323.203	2.00254
323.57	1.99256
323.937	1.98391
324.303	1.97528
324.67	1.96687
325.037	1.95785
325.403	1.9489
325.77	1.94111
326.136	1.93219
326.503	1.9237
326.869	1.91555
327.235	1.90726
327.602	1.90003
327.968	1.88975
328.334	1.88277
328.7	1.8748
329.067	1.8667
329.433	1.85966
329.799	1.85159
330.165	1.84414
330.531	1.83731
330.897	1.83082
331.263	1.82338
331.629	1.816
331.995	1.8095
332.36	1.80257
332.726	1.7948
333.092	1.7873
333.458	1.77993
333.823	1.77243
334.189	1.76394
334.554	1.75722
334.92	1.74873
335.286	1.74126
335.651	1.73492
336.016	1.72801
336.382	1.71978
336.747	1.71289
337.113	1.70526
337.478	1.69873
337.843	1.6908
338.208	1.68393
338.573	1.67659
338.939	1.67002
339.304	1.66277
339.669	1.65562
340.034	1.64875
340.399	1.64214
340.764	1.63525
341.129	1.62889
341.493	1.62207
341.858	1.61611
342.223	1.60938
342.588	1.60282
342.952	1.5961
343.317	1.58944
343.682	1.58248
344.046	1.57619
344.411	1.56986
344.775	1.56282
345.14	1.55593
345.504	1.5499
345.869	1.54346
346.233	1.53675
346.597	1.52998
346.962	1.52353
347.326	1.51691
347.69	1.51051
348.054	1.50403
348.418	1.49741
348.782	1.49049
349.146	1.48433
349.51	1.47774
349.874	1.47046
350.238	1.46424
350.602	1.4574
350.966	1.45051
351.33	1.44459
351.693	1.43839
352.057	1.43123
352.421	1.42516
352.784	1.41825
353.148	1.41213
353.512	1.40499
353.875	1.39792
354.239	1.39125
354.602	1.38456
354.966	1.37758
355.329	1.37031
355.692	1.36314
356.056	1.35644
356.419	1.34976
356.782	1.34269
357.145	1.33568
357.508	1.32908
357.871	1.32232
358.234	1.31591
358.597	1.30955
358.96	1.30238
359.323	1.29566
359.686	1.28993
360.049	1.28341
360.412	1.27791
360.775	1.27111
361.137	1.26518
361.5	1.25951
361.863	1.25363
362.225	1.24746
362.588	1.24134
362.951	1.23611
363.313	1.23059
363.675	1.22546
364.038	1.22024
364.4	1.21498
364.763	1.20971
365.125	1.20514
365.487	1.20011
365.849	1.19545
366.212	1.19056
366.574	1.18582
366.936	1.18151
367.298	1.1766
367.66	1.17229
368.022	1.1674
368.384	1.16309
368.746	1.15843
369.108	1.15388
369.469	1.14972
369.831	1.14585
370.193	1.1418
370.555	1.13768
370.916	1.13368
371.278	1.12946
371.64	1.12518
372.001	1.12121
372.363	1.11734
372.724	1.11336
373.086	1.10988
373.447	1.10619
373.808	1.10254
374.17	1.09923
374.531	1.09564
374.892	1.09226
375.253	1.08888
375.615	1.08547
375.976	1.08231
376.337	1.07916
376.698	1.07598
377.059	1.07295
377.42	1.0696
377.781	1.0666
378.141	1.06313
378.502	1.05993
378.863	1.05667
379.224	1.05361
379.585	1.05046
379.945	1.04764
380.306	1.04464
380.666	1.04184
381.027	1.03879
381.388	1.03604
381.748	1.03305
382.108	1.03002
382.469	1.02684
382.829	1.02391
383.19	1.02069
383.55	1.01752
383.91	1.01442
384.27	1.01159
384.63	1.00844
384.991	1.00555
385.351	1.00273
385.711	0.9998
386.071	0.99663
386.431	0.99387
386.791	0.99088
387.15	0.98814
387.51	0.98552
387.87	0.98274
388.23	0.97993
388.589	0.97741
388.949	0.97492
389.309	0.9725
389.668	0.97003
390.028	0.96766
390.387	0.96513
390.747	0.96315
391.106	0.96079
391.466	0.95862
391.825	0.95614
392.184	0.9537
392.544	0.95151
392.903	0.94914
393.262	0.94711
393.621	0.94522
393.98	0.943
394.339	0.94084
394.698	0.93909
395.057	0.93703
395.416	0.93483
395.775	0.93256
396.134	0.93005
396.493	0.92788
396.852	0.92546
397.211	0.92315
397.569	0.92124
397.928	0.9189
398.287	0.91681
398.645	0.91491
399.004	0.91248
399.362	0.91034
399.721	0.90823
400.079	0.90621
400.438	0.90426
400.796	0.90212
401.154	0.90005
401.512	0.89791
401.871	0.89617
402.229	0.89373
402.587	0.89144
402.945	0.88961
403.303	0.88774
403.661	0.88594
404.019	0.88367
404.377	0.88192
404.735	0.88015
405.093	0.87801
405.451	0.87638
405.808	0.87477
406.166	0.87266
406.524	0.87137
406.882	0.86999
407.239	0.86815
407.597	0.86628
407.954	0.86443
408.312	0.86269
408.669	0.86084
409.027	0.85922
409.384	0.85734
409.741	0.85573
410.099	0.8542
410.456	0.85245
410.813	0.85055
411.17	0.84886
411.527	0.84719
411.884	0.84558
412.242	0.84375
412.599	0.84224
412.956	0.8406
413.312	0.83888
413.669	0.83734
414.026	0.83555
414.383	0.83374
414.74	0.83225
415.096	0.83054
415.453	0.82905
415.81	0.82766
416.166	0.82616
416.523	0.82427
416.879	0.82277
417.236	0.82089
417.592	0.81905
417.949	0.8175
418.305	0.81617
418.661	0.81492
419.018	0.81353
419.374	0.81197
419.73	0.81076
420.086	0.80946
420.442	0.80795
420.798	0.80617
421.154	0.80479
421.51	0.80333
421.866	0.80187
422.222	0.80068
422.578	0.79927
422.934	0.79777
423.29	0.7962
423.646	0.79465
424.001	0.7931
424.357	0.79129
424.713	0.78975
425.068	0.78756
425.424	0.78536
425.779	0.78322
426.135	0.78109
426.49	0.77908
426.845	0.77713
427.201	0.77496
427.556	0.77276
427.911	0.7709
428.266	0.7697
428.622	0.76808
428.977	0.76622
429.332	0.76524
429.687	0.7637
430.042	0.76237
430.397	0.76127
430.752	0.75993
431.107	0.7586
431.461	0.75754
431.816	0.75635
432.171	0.75543
432.526	0.75511
432.88	0.75436
433.235	0.75352
433.59	0.75264
433.944	0.752
434.299	0.75105
434.653	0.75007
435.008	0.74909
435.362	0.74844
435.716	0.74707
436.071	0.74635
436.425	0.74596
436.779	0.74504
437.133	0.74375
437.487	0.74314
437.841	0.74216
438.195	0.74148
438.549	0.74048
438.903	0.73978
439.257	0.73891
439.611	0.7379
439.965	0.73703
440.319	0.73607
440.673	0.73551
441.026	0.73366
441.38	0.73235
441.734	0.73168
442.087	0.73096
442.441	0.73029
442.794	0.72897
443.148	0.7282
443.501	0.72711
443.855	0.72587
444.208	0.72536
444.561	0.72533
444.915	0.72486
445.268	0.72428
445.621	0.72361
445.974	0.72353
446.327	0.72279
446.68	0.72214
447.033	0.72162
447.386	0.72118
447.739	0.72117
448.092	0.72031
448.445	0.72096
448.798	0.72077
449.15	0.7202
449.503	0.71961
449.856	0.71905
450.209	0.71926
450.561	0.71934
450.914	0.7191
451.266	0.71928
451.619	0.71867
451.971	0.71812
452.323	0.71773
452.676	0.71744
453.028	0.7168
453.38	0.71578
453.733	0.71563
454.085	0.71494
454.437	0.71443
454.789	0.71425
455.141	0.71376
455.493	0.7137
455.845	0.71325
456.197	0.71295
456.549	0.71264
456.901	0.71275
457.253	0.71227
457.604	0.71102
457.956	0.7102
458.308	0.71015
458.659	0.70971
459.011	0.70949
459.362	0.70922
459.714	0.70865
460.065	0.70815
460.417	0.70779
460.768	0.70819
461.12	0.70864
461.471	0.70893
461.822	0.70907
462.173	0.70856
462.525	0.70847
462.876	0.70836
463.227	0.70803
463.578	0.70775
463.929	0.70754
464.28	0.70724
464.631	0.70708
464.982	0.70752
465.332	0.70764
465.683	0.70707
466.034	0.70721
466.385	0.70708
466.735	0.7072
467.086	0.70738
467.437	0.70782
467.787	0.70874
468.138	0.70852
468.488	0.70767
468.839	0.70814
469.189	0.70817
469.539	0.70814
469.89	0.70803
470.24	0.70814
470.59	0.70805
470.94	0.70869
471.29	0.70886
471.64	0.70919
471.99	0.71022
472.34	0.71063
472.69	0.71123
473.04	0.71195
473.39	0.71234
473.74	0.71242
474.09	0.71263
474.439	0.71339
474.789	0.71387
475.139	0.71408
475.488	0.71487
475.838	0.71643
476.188	0.71721
476.537	0.71793
476.886	0.7187
477.236	0.72
477.585	0.72121
477.935	0.72236
478.284	0.72304
478.633	0.72459
478.982	0.72547
479.331	0.72577
479.68	0.72726
480.03	0.72818
480.379	0.72911
480.728	0.73046
481.076	0.73206
481.425	0.7334
481.774	0.73482
482.123	0.73601
482.472	0.73752
482.821	0.73892
483.169	0.73984
483.518	0.74076
483.866	0.74241
484.215	0.74392
484.563	0.74514
484.912	0.74622
485.26	0.74793
485.609	0.7492
485.957	0.75012
486.305	0.7517
486.654	0.75348
487.002	0.75476
487.35	0.75616
487.698	0.75782
488.046	0.75934
488.394	0.76059
488.742	0.76226
489.09	0.76378
489.438	0.76501
489.786	0.76643
490.134	0.76835
490.482	0.77003
490.829	0.77205
491.177	0.7737
491.525	0.77522
491.872	0.77678
492.22	0.7784
492.567	0.77972
492.915	0.78145
493.262	0.78307
493.61	0.7845
493.957	0.78633
494.304	0.78759
494.652	0.78982
494.999	0.7918
495.346	0.79395
495.693	0.79611
496.04	0.79784
496.387	0.79982
496.734	0.80215
497.081	0.80407
497.428	0.80597
497.775	0.80798
498.122	0.81007
498.469	0.81208
498.816	0.81472
499.162	0.81674
499.509	0.81964
499.856	0.82247
500.202	0.82457
500.549	0.8268
500.895	0.82958
501.242	0.83197
501.588	0.83488
501.935	0.83691
502.281	0.83897
502.627	0.84072
502.973	0.84284
503.32	0.84539
503.666	0.84764
504.012	0.84971
504.358	0.85268
504.704	0.85481
505.05	0.85758
505.396	0.86016
505.742	0.86246
506.088	0.86449
506.433	0.86694
506.779	0.86869
507.125	0.87076
507.471	0.87341
507.816	0.87596
508.162	0.87812
508.507	0.8807
508.853	0.88311
509.198	0.88557
509.544	0.88819
509.889	0.8908
510.234	0.89331
510.58	0.89566
510.925	0.89785
511.27	0.90106
511.615	0.90232
511.96	0.90411
512.306	0.90586
512.651	0.9073
512.996	0.90877
513.341	0.91115
513.685	0.91311
514.03	0.91465
514.375	0.91593
514.72	0.91751
515.065	0.91935
515.409	0.92099
515.754	0.9225
516.099	0.92369
516.443	0.92514
516.788	0.92644
517.132	0.92784
517.476	0.92912
517.821	0.93009
518.165	0.93123
518.51	0.93153
518.854	0.93275
519.198	0.93383
519.542	0.93424
519.886	0.9349
520.23	0.93581
520.574	0.93592
520.918	0.93636
521.262	0.93701
521.606	0.93723
521.95	0.93799
522.294	0.93824
522.638	0.93819
522.981	0.9382
523.325	0.93837
523.669	0.93827
524.012	0.93801
524.356	0.93714
524.699	0.93678
525.043	0.93625
525.386	0.93573
525.73	0.93505
526.073	0.93472
526.416	0.93399
526.76	0.93321
527.103	0.93217
527.446	0.93113
527.789	0.92996
528.132	0.92872
528.475	0.92725
528.818	0.92619
529.161	0.9242
529.504	0.92236
529.847	0.92111
530.19	0.91951
530.532	0.91768
530.875	0.91565
531.218	0.91362
531.56	0.91193
531.903	0.90974
532.246	0.90718
532.588	0.90495
532.93	0.90273
533.273	0.8999
533.615	0.89763
533.958	0.89531
534.3	0.89323
534.642	0.89058
534.984	0.88811
535.326	0.88545
535.669	0.8828
536.011	0.88012
536.353	0.87703
536.695	0.87448
537.037	0.87113
537.378	0.86792
537.72	0.86467
538.062	0.86129
538.404	0.85825
538.746	0.85506
539.087	0.85196
539.429	0.84928
539.77	0.84548
540.112	0.84171
540.454	0.83817
540.795	0.83446
541.136	0.83045
541.478	0.82646
541.819	0.82333
542.16	0.81957
542.502	0.81606
542.843	0.81228
543.184	0.80821
543.525	0.80439
543.866	0.80047
544.207	0.79632
544.548	0.79228
544.889	0.78862
545.23	0.78474
545.571	0.78057
545.911	0.77628
546.252	0.77229
546.593	0.76791
546.934	0.76449
547.274	0.7608
547.615	0.75666
547.955	0.75253
548.296	0.749
548.636	0.74499
548.977	0.74078
549.317	0.73694
549.657	0.73287
549.997	0.72857
550.338	0.72463
550.678	0.72085
551.018	0.71676
551.358	0.71304
551.698	0.70894
552.038	0.70472
552.378	0.70098
552.718	0.69709
553.058	0.69298
553.398	0.68864
553.737	0.68477
554.077	0.68056
554.417	0.67639
554.756	0.67258
555.096	0.66862
555.435	0.66471
555.775	0.66079
556.114	0.65677
556.454	0.6526
556.793	0.64874
557.133	0.64512
557.472	0.64111
557.811	0.63742
558.15	0.63361
558.489	0.62981
558.829	0.62625
559.168	0.62238
559.507	0.61846
559.846	0.61483
560.184	0.61141
560.523	0.60801
560.862	0.60408
561.201	0.60031
561.54	0.59685
561.878	0.59312
562.217	0.58954
562.556	0.58597
562.894	0.58234
563.233	0.57899
563.571	0.57562
563.91	0.57203
564.248	0.56844
564.586	0.56529
564.925	0.56184
565.263	0.55847
565.601	0.55514
565.939	0.55161
566.277	0.54851
566.616	0.54527
566.954	0.54214
567.292	0.53889
567.63	0.53543
567.967	0.53224
568.305	0.52919
568.643	0.52585
568.981	0.52282
569.319	0.51983
569.656	0.51666
569.994	0.51366
570.331	0.51047
570.669	0.50737
571.006	0.50423
571.344	0.50127
571.681	0.4983
572.019	0.49561
572.356	0.49252
572.693	0.48955
573.03	0.48672
573.368	0.48373
573.705	0.4809
574.042	0.478
574.379	0.47504
574.716	0.47246
575.053	0.46981
575.39	0.46706
575.727	0.4643
576.063	0.46137
576.4	0.45861
576.737	0.45598
577.074	0.45324
577.41	0.45062
577.747	0.44817
578.083	0.44554
578.42	0.44295
578.756	0.4403
579.093	0.43756
579.429	0.43513
579.766	0.43265
580.102	0.43024
580.438	0.42782
580.774	0.42545
581.11	0.42276
581.446	0.42045
581.782	0.4179
582.119	0.41546
582.454	0.41301
582.79	0.41076
583.126	0.40875
583.462	0.40638
583.798	0.40384
584.134	0.40174
584.469	0.39933
584.805	0.397
585.141	0.39499
585.476	0.39279
585.812	0.39058
586.147	0.3885
586.482	0.38631
586.818	0.38424
587.153	0.38207
587.488	0.37992
587.824	0.37768
588.159	0.37582
588.494	0.37375
588.829	0.37189
589.164	0.36999
589.499	0.36805
589.834	0.36606
590.169	0.36398
590.504	0.36191
590.839	0.36004
591.174	0.35786
591.508	0.35588
591.843	0.35372
592.178	0.35163
592.512	0.34963
592.847	0.34782
593.181	0.34573
593.516	0.34396
593.85	0.34205
594.185	0.34024
594.519	0.33853
594.853	0.33678
595.187	0.33487
595.522	0.33304
595.856	0.33107
596.19	0.32949
596.524	0.32769
596.858	0.3259
597.192	0.3239
597.526	0.32241
