Data from AuNP_Jan1_slurryTest_532nm_50mJ_30s_Absorbance_11-40-56-577.txt Node
Date: Mon Jan 30 11:40:56 EST 2023
User: UV-vis
Spectrometer: FLMS04918
Trigger mode: 0
Integration Time (sec): 1.080000E-3
Scans to average: 10
Electric dark correction enabled: true
Nonlinearity correction enabled: false
Boxcar width: 10
XAxis mode: Wavelengths
Number of Pixels in Spectrum: 2048
>>>>>Begin Spectral Data<<<<<
179.23	0.10774
179.611	0.26583
179.992	0.55798
180.373	0.57518
180.754	0.81621
181.134	0.20503
181.515	0.30163
181.896	0.21682
182.276	0.07185
182.657	0.17968
183.038	-0.04396
183.418	-0.10397
183.799	-0.16797
184.179	0.31352
184.56	0.25659
184.94	0.23337
185.32	0.2043
185.701	0.20224
186.081	0.23642
186.461	0.25652
186.842	0.26407
187.222	0.24641
187.602	0.26289
187.982	0.2626
188.362	0.26066
188.742	0.25962
189.122	0.24917
189.502	0.25297
189.882	0.25011
190.262	0.24725
190.642	0.25144
191.022	0.25073
191.402	0.24712
191.781	0.24604
192.161	0.25182
192.541	0.25935
192.92	0.26346
193.3	0.26755
193.68	0.27206
194.059	0.2737
194.439	0.27157
194.818	0.27737
195.198	0.28159
195.577	0.28045
195.957	0.28593
196.336	0.2882
196.715	0.28964
197.094	0.29209
197.474	0.29263
197.853	0.29759
198.232	0.29987
198.611	0.29803
198.99	0.29904
199.369	0.29946
199.748	0.30115
200.127	0.29964
200.506	0.29866
200.885	0.29852
201.264	0.29722
201.643	0.29663
202.022	0.29514
202.401	0.29402
202.779	0.28722
203.158	0.28671
203.537	0.28161
203.915	0.27829
204.294	0.27972
204.673	0.2823
205.051	0.28764
205.43	0.29043
205.808	0.28885
206.187	0.2919
206.565	0.29557
206.943	0.29515
207.322	0.29883
207.7	0.29474
208.078	0.29963
208.456	0.29811
208.835	0.2973
209.213	0.30014
209.591	0.30325
209.969	0.3099
210.347	0.31358
210.725	0.31151
211.103	0.31617
211.481	0.32382
211.859	0.32632
212.237	0.32649
212.614	0.32484
212.992	0.32168
213.37	0.32141
213.748	0.32543
214.125	0.32838
214.503	0.32799
214.881	0.32548
215.258	0.32623
215.636	0.33404
216.013	0.32943
216.391	0.33284
216.768	0.33488
217.145	0.33721
217.523	0.33492
217.9	0.33206
218.277	0.3239
218.655	0.32494
219.032	0.32306
219.409	0.3223
219.786	0.32533
220.163	0.32926
220.54	0.33593
220.917	0.33527
221.294	0.33713
221.671	0.3348
222.048	0.32917
222.425	0.32983
222.802	0.33036
223.179	0.33316
223.556	0.33161
223.932	0.33432
224.309	0.33173
224.686	0.33289
225.062	0.333
225.439	0.33318
225.815	0.33148
226.192	0.33759
226.568	0.34267
226.945	0.3411
227.321	0.34314
227.698	0.34222
228.074	0.33847
228.45	0.3289
228.827	0.32903
229.203	0.32819
229.579	0.32427
229.955	0.32602
230.331	0.32301
230.707	0.3258
231.083	0.32512
231.46	0.32875
231.835	0.32761
232.211	0.32782
232.587	0.33255
232.963	0.3317
233.339	0.3367
233.715	0.33794
234.091	0.33788
234.466	0.34041
234.842	0.34301
235.218	0.34728
235.593	0.35127
235.969	0.35904
236.344	0.36389
236.72	0.36696
237.095	0.36366
237.471	0.36737
237.846	0.36694
238.222	0.37305
238.597	0.3785
238.972	0.37805
239.348	0.37998
239.723	0.38479
240.098	0.38635
240.473	0.38193
240.848	0.38301
241.223	0.38002
241.598	0.38136
241.973	0.38489
242.348	0.38051
242.723	0.37996
243.098	0.37458
243.473	0.37684
243.848	0.37264
244.223	0.38058
244.597	0.38434
244.972	0.38304
245.347	0.3849
245.721	0.38486
246.096	0.38396
246.47	0.38497
246.845	0.3845
247.219	0.38204
247.594	0.38151
247.968	0.37994
248.343	0.37846
248.717	0.37969
249.091	0.38116
249.466	0.38254
249.84	0.38533
250.214	0.38914
250.588	0.39167
250.962	0.39544
251.336	0.39793
251.71	0.402
252.084	0.40177
252.458	0.40213
252.832	0.41397
253.206	0.41926
253.58	0.4283
253.954	0.4331
254.328	0.43565
254.702	0.4425
255.075	0.44859
255.449	0.45325
255.823	0.45769
256.196	0.46314
256.57	0.46762
256.943	0.4704
257.317	0.47443
257.69	0.47594
258.064	0.4809
258.437	0.4825
258.81	0.48338
259.184	0.48457
259.557	0.48546
259.93	0.48062
260.303	0.47788
260.677	0.47671
261.05	0.47841
261.423	0.47281
261.796	0.47081
262.169	0.46921
262.542	0.46482
262.915	0.4662
263.288	0.46692
263.661	0.46814
264.033	0.46976
264.406	0.47534
264.779	0.48243
265.152	0.48189
265.524	0.48253
265.897	0.48509
266.27	0.49004
266.642	0.49202
267.015	0.49107
267.387	0.49556
267.76	0.50258
268.132	0.50983
268.504	0.51057
268.877	0.51389
269.249	0.52053
269.621	0.52816
269.994	0.52934
270.366	0.53896
270.738	0.53812
271.11	0.5454
271.482	0.55239
271.854	0.55607
272.226	0.55293
272.598	0.55428
272.97	0.56512
273.342	0.57936
273.714	0.58058
274.086	0.58427
274.458	0.59539
274.829	0.60639
275.201	0.60901
275.573	0.61592
275.944	0.614
276.316	0.62542
276.688	0.62799
277.059	0.63453
277.431	0.64696
277.802	0.65992
278.173	0.68069
278.545	0.71964
278.916	0.76193
279.287	0.81801
279.659	0.89072
280.03	0.98295
280.401	1.07099
280.772	1.15938
281.143	1.2466
281.515	1.33063
281.886	1.40899
282.257	1.47531
282.628	1.52995
282.998	1.58119
283.369	1.62248
283.74	1.6605
284.111	1.68951
284.482	1.7146
284.853	1.73394
285.223	1.74663
285.594	1.75771
285.965	1.76498
286.335	1.76615
286.706	1.76324
287.076	1.76376
287.447	1.76109
287.817	1.75373
288.188	1.74872
288.558	1.74187
288.928	1.73237
289.299	1.72167
289.669	1.7084
290.039	1.69459
290.409	1.68234
290.779	1.66903
291.149	1.65495
291.52	1.64118
291.89	1.62608
292.26	1.61219
292.629	1.59814
292.999	1.58485
293.369	1.57169
293.739	1.55845
294.109	1.545
294.479	1.53326
294.848	1.52133
295.218	1.50969
295.588	1.49819
295.957	1.48644
296.327	1.47515
296.696	1.46478
297.066	1.45474
297.435	1.44588
297.805	1.43665
298.174	1.42701
298.544	1.41709
298.913	1.40853
299.282	1.40044
299.651	1.39172
300.021	1.38316
300.39	1.37529
300.759	1.36731
301.128	1.35994
301.497	1.35192
301.866	1.34501
302.235	1.338
302.604	1.33133
302.973	1.32445
303.342	1.31766
303.71	1.31081
304.079	1.30406
304.448	1.29659
304.817	1.2889
305.185	1.28124
305.554	1.27339
305.923	1.26565
306.291	1.25841
306.66	1.25066
307.028	1.24258
307.397	1.2352
307.765	1.2275
308.133	1.21974
308.502	1.2127
308.87	1.20521
309.238	1.19869
309.606	1.19214
309.975	1.18578
310.343	1.17911
310.711	1.17298
311.079	1.16684
311.447	1.1606
311.815	1.15451
312.183	1.14845
312.551	1.14257
312.919	1.13675
313.286	1.13086
313.654	1.12492
314.022	1.11917
314.39	1.11379
314.757	1.10839
315.125	1.10314
315.492	1.09805
315.86	1.09274
316.228	1.08712
316.595	1.08187
316.962	1.07631
317.33	1.07077
317.697	1.06535
318.065	1.05971
318.432	1.0541
318.799	1.04845
319.166	1.04308
319.534	1.03754
319.901	1.03214
320.268	1.02708
320.635	1.02198
321.002	1.01695
321.369	1.01216
321.736	1.00754
322.103	1.00263
322.47	0.99821
322.836	0.99338
323.203	0.98859
323.57	0.98374
323.937	0.97873
324.303	0.97391
324.67	0.96907
325.037	0.96444
325.403	0.9596
325.77	0.9549
326.136	0.95039
326.503	0.94608
326.869	0.94149
327.235	0.93711
327.602	0.93266
327.968	0.92802
328.334	0.9236
328.7	0.91944
329.067	0.91514
329.433	0.91082
329.799	0.90657
330.165	0.9023
330.531	0.89824
330.897	0.89409
331.263	0.89012
331.629	0.88626
331.995	0.88226
332.36	0.87836
332.726	0.87427
333.092	0.87035
333.458	0.86638
333.823	0.86243
334.189	0.85851
334.554	0.85484
334.92	0.85087
335.286	0.84698
335.651	0.84336
336.016	0.83977
336.382	0.83606
336.747	0.83242
337.113	0.82864
337.478	0.82497
337.843	0.82128
338.208	0.81782
338.573	0.81413
338.939	0.81074
339.304	0.80741
339.669	0.80382
340.034	0.80026
340.399	0.79688
340.764	0.7936
341.129	0.79046
341.493	0.78702
341.858	0.7837
342.223	0.78024
342.588	0.77698
342.952	0.77379
343.317	0.77049
343.682	0.76688
344.046	0.76372
344.411	0.76052
344.775	0.75715
345.14	0.7538
345.504	0.7506
345.869	0.747
346.233	0.74387
346.597	0.74041
346.962	0.73688
347.326	0.73361
347.69	0.73033
348.054	0.72695
348.418	0.72351
348.782	0.71997
349.146	0.7167
349.51	0.71316
349.874	0.70957
350.238	0.70595
350.602	0.70257
350.966	0.69895
351.33	0.69576
351.693	0.69215
352.057	0.68852
352.421	0.68524
352.784	0.68187
353.148	0.67827
353.512	0.67493
353.875	0.67129
354.239	0.66778
354.602	0.66441
354.966	0.66093
355.329	0.65746
355.692	0.65392
356.056	0.65037
356.419	0.647
356.782	0.64354
357.145	0.64024
357.508	0.63696
357.871	0.63366
358.234	0.63034
358.597	0.62721
358.96	0.62365
359.323	0.62065
359.686	0.61768
360.049	0.61446
360.412	0.6113
360.775	0.60824
361.137	0.6053
361.5	0.60225
361.863	0.59937
362.225	0.59631
362.588	0.59351
362.951	0.59073
363.313	0.58801
363.675	0.58534
364.038	0.5827
364.4	0.58007
364.763	0.57721
365.125	0.5747
365.487	0.57229
365.849	0.5699
366.212	0.56759
366.574	0.56535
366.936	0.56289
367.298	0.56059
367.66	0.55832
368.022	0.55618
368.384	0.55398
368.746	0.55171
369.108	0.54972
369.469	0.54758
369.831	0.54566
370.193	0.54353
370.555	0.54143
370.916	0.53934
371.278	0.53734
371.64	0.53535
372.001	0.53336
372.363	0.53169
372.724	0.52985
373.086	0.52812
373.447	0.52632
373.808	0.52463
374.17	0.52295
374.531	0.52121
374.892	0.51954
375.253	0.51809
375.615	0.51657
375.976	0.51506
376.337	0.51337
376.698	0.5119
377.059	0.51037
377.42	0.50869
377.781	0.50728
378.141	0.50582
378.502	0.50432
378.863	0.50285
379.224	0.50133
379.585	0.49992
379.945	0.4984
380.306	0.49681
380.666	0.49537
381.027	0.49394
381.388	0.49263
381.748	0.49135
382.108	0.49007
382.469	0.48859
382.829	0.48709
383.19	0.48543
383.55	0.4839
383.91	0.48247
384.27	0.48102
384.63	0.47974
384.991	0.47861
385.351	0.47717
385.711	0.47593
386.071	0.47466
386.431	0.47338
386.791	0.47194
387.15	0.47064
387.51	0.46941
387.87	0.4682
388.23	0.46703
388.589	0.46579
388.949	0.46465
389.309	0.46364
389.668	0.46238
390.028	0.46143
390.387	0.46029
390.747	0.45936
391.106	0.45841
391.466	0.45752
391.825	0.45629
392.184	0.45506
392.544	0.45389
392.903	0.45279
393.262	0.45164
393.621	0.45058
393.98	0.44962
394.339	0.44887
394.698	0.44805
395.057	0.4472
395.416	0.44637
395.775	0.4454
396.134	0.44438
396.493	0.44316
396.852	0.44202
397.211	0.44097
397.569	0.43981
397.928	0.43868
398.287	0.43772
398.645	0.43668
399.004	0.43548
399.362	0.43453
399.721	0.4336
400.079	0.43261
400.438	0.43183
400.796	0.43108
401.154	0.43025
401.512	0.42932
401.871	0.42841
402.229	0.42745
402.587	0.42627
402.945	0.42543
403.303	0.42445
403.661	0.42367
404.019	0.4228
404.377	0.42189
404.735	0.42114
405.093	0.42038
405.451	0.41961
405.808	0.41871
406.166	0.41768
406.524	0.41717
406.882	0.4165
407.239	0.41569
407.597	0.41491
407.954	0.41402
408.312	0.41312
408.669	0.41224
409.027	0.4114
409.384	0.4107
409.741	0.40993
410.099	0.40938
410.456	0.40851
410.813	0.40755
411.17	0.40673
411.527	0.40592
411.884	0.40529
412.242	0.40451
412.599	0.40374
412.956	0.40318
413.312	0.40253
413.669	0.402
414.026	0.40119
414.383	0.40043
414.74	0.39965
415.096	0.39889
415.453	0.39822
415.81	0.39753
416.166	0.39681
416.523	0.39586
416.879	0.39496
417.236	0.39403
417.592	0.39323
417.949	0.39265
418.305	0.39232
418.661	0.3918
419.018	0.39127
419.374	0.39057
419.73	0.39012
420.086	0.38957
420.442	0.38894
420.798	0.38816
421.154	0.38762
421.51	0.38712
421.866	0.38665
422.222	0.3863
422.578	0.38575
422.934	0.38518
423.29	0.38456
423.646	0.38409
424.001	0.3836
424.357	0.38291
424.713	0.38233
425.068	0.38163
425.424	0.38066
425.779	0.37949
426.135	0.37864
426.49	0.37803
426.845	0.37727
427.201	0.37628
427.556	0.37566
427.911	0.37515
428.266	0.375
428.622	0.37442
428.977	0.3737
429.332	0.37327
429.687	0.37277
430.042	0.37245
430.397	0.37218
430.752	0.37178
431.107	0.37109
431.461	0.37065
431.816	0.37008
432.171	0.36976
432.526	0.36927
432.88	0.36902
433.235	0.36883
433.59	0.36822
433.944	0.36807
434.299	0.36778
434.653	0.36751
435.008	0.36692
435.362	0.36633
435.716	0.36559
436.071	0.36529
436.425	0.365
436.779	0.3646
437.133	0.36415
437.487	0.36385
437.841	0.36344
438.195	0.36303
438.549	0.36301
438.903	0.36284
439.257	0.36255
439.611	0.36181
439.965	0.36131
440.319	0.36059
440.673	0.36049
441.026	0.36037
441.38	0.3593
441.734	0.35876
442.087	0.35839
442.441	0.35806
442.794	0.35731
443.148	0.35705
443.501	0.3568
443.855	0.35659
444.208	0.35656
444.561	0.35634
444.915	0.35582
445.268	0.35546
445.621	0.35557
445.974	0.35534
446.327	0.35491
446.68	0.35497
447.033	0.35503
447.386	0.35502
447.739	0.35529
448.092	0.35507
448.445	0.35481
448.798	0.35477
449.15	0.35458
449.503	0.35429
449.856	0.35434
450.209	0.35433
450.561	0.35409
450.914	0.35354
451.266	0.35363
451.619	0.35304
451.971	0.35279
452.323	0.3527
452.676	0.35237
453.028	0.35193
453.38	0.35186
453.733	0.35181
454.085	0.35163
454.437	0.35138
454.789	0.35092
455.141	0.35067
455.493	0.35024
455.845	0.35037
456.197	0.35037
456.549	0.35018
456.901	0.3502
457.253	0.34988
457.604	0.34973
457.956	0.34942
458.308	0.34928
458.659	0.34858
459.011	0.34875
459.362	0.34874
459.714	0.34884
460.065	0.34879
460.417	0.34871
460.768	0.34812
461.12	0.34823
461.471	0.34813
461.822	0.34827
462.173	0.34883
462.525	0.34884
462.876	0.34906
463.227	0.34895
463.578	0.34891
463.929	0.34898
464.28	0.34889
464.631	0.34854
464.982	0.34844
465.332	0.34854
465.683	0.34884
466.034	0.34902
466.385	0.34888
466.735	0.34909
467.086	0.34896
467.437	0.34908
467.787	0.34914
468.138	0.34944
468.488	0.34968
468.839	0.34982
469.189	0.34955
469.539	0.34927
469.89	0.34939
470.24	0.34962
470.59	0.34964
470.94	0.34979
471.29	0.35005
471.64	0.35021
471.99	0.35078
472.34	0.35121
472.69	0.35159
473.04	0.35199
473.39	0.35232
473.74	0.35239
474.09	0.35255
474.439	0.35306
474.789	0.35373
475.139	0.35439
475.488	0.3547
475.838	0.35503
476.188	0.35525
476.537	0.35576
476.886	0.35597
477.236	0.3564
477.585	0.35693
477.935	0.3575
478.284	0.35812
478.633	0.35849
478.982	0.35927
479.331	0.3595
479.68	0.36017
480.03	0.3608
480.379	0.36126
480.728	0.362
481.076	0.36293
481.425	0.36379
481.774	0.36451
482.123	0.36516
482.472	0.36566
482.821	0.36668
483.169	0.36734
483.518	0.36824
483.866	0.36916
484.215	0.36999
484.563	0.37064
484.912	0.37139
485.26	0.37228
485.609	0.37311
485.957	0.37399
486.305	0.37459
486.654	0.37567
487.002	0.37622
487.35	0.3768
487.698	0.37773
488.046	0.37853
488.394	0.37947
488.742	0.38011
489.09	0.38082
489.438	0.38142
489.786	0.38211
490.134	0.38311
490.482	0.38413
490.829	0.38503
491.177	0.38596
491.525	0.3869
491.872	0.38782
492.22	0.38839
492.567	0.3892
492.915	0.38998
493.262	0.39086
493.61	0.39194
493.957	0.39288
494.304	0.39411
494.652	0.39561
494.999	0.39671
495.346	0.39778
495.693	0.39854
496.04	0.39971
496.387	0.40096
496.734	0.40206
497.081	0.40319
497.428	0.40396
497.775	0.40495
498.122	0.4063
498.469	0.40728
498.816	0.40869
499.162	0.41022
499.509	0.41165
499.856	0.4127
500.202	0.4141
500.549	0.41528
500.895	0.41653
501.242	0.41768
501.588	0.41893
501.935	0.42002
502.281	0.42099
502.627	0.42228
502.973	0.42359
503.32	0.42489
503.666	0.42599
504.012	0.42755
504.358	0.42893
504.704	0.43035
505.05	0.43168
505.396	0.43283
505.742	0.43404
506.088	0.43518
506.433	0.43595
506.779	0.43704
507.125	0.43838
507.471	0.43946
507.816	0.44061
508.162	0.44156
508.507	0.44298
508.853	0.4441
509.198	0.44521
509.544	0.4466
509.889	0.44763
510.234	0.44915
510.58	0.45047
510.925	0.45159
511.27	0.45273
511.615	0.45387
511.96	0.45491
512.306	0.45598
512.651	0.45669
512.996	0.45778
513.341	0.45864
513.685	0.45975
514.03	0.46075
514.375	0.46177
514.72	0.46264
515.065	0.46375
515.409	0.46491
515.754	0.46564
516.099	0.46635
516.443	0.46714
516.788	0.46764
517.132	0.46819
517.476	0.46857
517.821	0.46891
518.165	0.4694
518.51	0.4698
518.854	0.47015
519.198	0.47063
519.542	0.47101
519.886	0.47143
520.23	0.47196
520.574	0.47246
520.918	0.47281
521.262	0.47312
521.606	0.47321
521.95	0.47346
522.294	0.47337
522.638	0.47329
522.981	0.4734
523.325	0.47357
523.669	0.47344
524.012	0.47347
524.356	0.47349
524.699	0.47349
525.043	0.47321
525.386	0.4731
525.73	0.47283
526.073	0.4727
526.416	0.47262
526.76	0.47211
527.103	0.47178
527.446	0.47112
527.789	0.47043
528.132	0.46992
528.475	0.46947
528.818	0.46888
529.161	0.46814
529.504	0.46746
529.847	0.46694
530.19	0.46626
530.532	0.46555
530.875	0.46474
531.218	0.46389
531.56	0.46308
531.903	0.46192
532.246	0.46099
532.588	0.45997
532.93	0.45887
533.273	0.45771
533.615	0.45625
533.958	0.45513
534.3	0.45407
534.642	0.45296
534.984	0.45175
535.326	0.4503
535.669	0.4488
536.011	0.44745
536.353	0.44609
536.695	0.44467
537.037	0.44305
537.378	0.44155
537.72	0.43999
538.062	0.43831
538.404	0.43657
538.746	0.43489
539.087	0.43338
539.429	0.43189
539.77	0.42998
540.112	0.42827
540.454	0.42656
540.795	0.42487
541.136	0.42299
541.478	0.42121
541.819	0.41943
542.16	0.41774
542.502	0.41612
542.843	0.4143
543.184	0.4124
543.525	0.41052
543.866	0.40866
544.207	0.40682
544.548	0.4047
544.889	0.40291
545.23	0.40113
545.571	0.39919
545.911	0.39705
546.252	0.395
546.593	0.39283
546.934	0.39105
547.274	0.38917
547.615	0.38716
547.955	0.38517
548.296	0.38332
548.636	0.3812
548.977	0.37922
549.317	0.37719
549.657	0.37526
549.997	0.37324
550.338	0.37133
550.678	0.36931
551.018	0.36734
551.358	0.36514
551.698	0.36325
552.038	0.36123
552.378	0.35914
552.718	0.35717
553.058	0.35535
553.398	0.35338
553.737	0.35164
554.077	0.34956
554.417	0.3475
554.756	0.34559
555.096	0.3435
555.435	0.34158
555.775	0.33964
556.114	0.33766
556.454	0.33569
556.793	0.33357
557.133	0.33181
557.472	0.3298
557.811	0.32771
558.15	0.32577
558.489	0.32399
558.829	0.32198
559.168	0.31998
559.507	0.3181
559.846	0.31635
560.184	0.31446
560.523	0.31245
560.862	0.31047
561.201	0.30873
561.54	0.30683
561.878	0.30496
562.217	0.30325
562.556	0.30141
562.894	0.29945
563.233	0.29766
563.571	0.29571
563.91	0.2938
564.248	0.29188
564.586	0.29011
564.925	0.28836
565.263	0.28667
565.601	0.28491
565.939	0.28314
566.277	0.2814
566.616	0.27977
566.954	0.27813
567.292	0.27635
567.63	0.27471
567.967	0.27311
568.305	0.27149
568.643	0.26983
568.981	0.26814
569.319	0.26658
569.656	0.26498
569.994	0.26356
570.331	0.26198
570.669	0.26059
571.006	0.25905
571.344	0.25753
571.681	0.25592
572.019	0.25455
572.356	0.25283
572.693	0.25122
573.03	0.24992
573.368	0.24827
573.705	0.24661
574.042	0.2451
574.379	0.24376
574.716	0.24234
575.053	0.2409
575.39	0.23947
575.727	0.23812
576.063	0.2366
576.4	0.23493
576.737	0.23346
577.074	0.23212
577.41	0.23055
577.747	0.22914
578.083	0.22774
578.42	0.22628
578.756	0.22507
579.093	0.22375
579.429	0.22239
579.766	0.22118
580.102	0.21978
580.438	0.21854
580.774	0.21738
581.11	0.21585
581.446	0.21453
581.782	0.21331
582.119	0.21196
582.454	0.21068
582.79	0.20934
583.126	0.20839
583.462	0.20729
583.798	0.2061
584.134	0.20479
584.469	0.20373
584.805	0.20264
585.141	0.20161
585.476	0.20052
585.812	0.19923
586.147	0.1982
586.482	0.19722
586.818	0.19597
587.153	0.19485
587.488	0.19393
587.824	0.19283
588.159	0.19197
588.494	0.19095
588.829	0.18998
589.164	0.18903
589.499	0.188
589.834	0.18704
590.169	0.18606
590.504	0.18508
590.839	0.18404
591.174	0.18305
591.508	0.18205
591.843	0.18087
592.178	0.17992
592.512	0.17898
592.847	0.17825
593.181	0.17717
593.516	0.17628
593.85	0.17542
594.185	0.17443
594.519	0.1733
594.853	0.17238
595.187	0.17146
595.522	0.17054
595.856	0.16965
596.19	0.1689
596.524	0.16796
596.858	0.16704
597.192	0.166
597.526	0.16519
