Data from AuNP_Jan1_slurryTest_532nm_50mJ_05s_Absorbance_11-43-56-620.txt Node
Date: Mon Jan 30 11:43:56 EST 2023
User: UV-vis
Spectrometer: FLMS04918
Trigger mode: 0
Integration Time (sec): 1.080000E-3
Scans to average: 10
Electric dark correction enabled: true
Nonlinearity correction enabled: false
Boxcar width: 10
XAxis mode: Wavelengths
Number of Pixels in Spectrum: 2048
>>>>>Begin Spectral Data<<<<<
179.23	-0.0098
179.611	-0.07651
179.992	-0.02274
180.373	0.01333
180.754	0.04873
181.134	-0.07103
181.515	-0.01813
181.896	0.01994
182.276	0.15107
182.657	0.40611
183.038	0.42703
183.418	0.04238
183.799	-0.16264
184.179	0.62105
184.56	0.37769
184.94	0.35001
185.32	0.30878
185.701	0.30666
186.081	0.30444
186.461	0.28709
186.842	0.2933
187.222	0.26654
187.602	0.27816
187.982	0.28173
188.362	0.2793
188.742	0.29534
189.122	0.28998
189.502	0.29471
189.882	0.2933
190.262	0.30162
190.642	0.30734
191.022	0.30939
191.402	0.30192
191.781	0.29814
192.161	0.30644
192.541	0.31165
192.92	0.31105
193.3	0.30947
193.68	0.30876
194.059	0.31583
194.439	0.32142
194.818	0.32733
195.198	0.33088
195.577	0.32805
195.957	0.32991
196.336	0.32951
196.715	0.32251
197.094	0.32543
197.474	0.32519
197.853	0.33251
198.232	0.3315
198.611	0.3277
198.99	0.32974
199.369	0.32998
199.748	0.3324
200.127	0.3296
200.506	0.33004
200.885	0.32799
201.264	0.33444
201.643	0.33323
202.022	0.32672
202.401	0.32078
202.779	0.31295
203.158	0.31902
203.537	0.31897
203.915	0.31492
204.294	0.31858
204.673	0.32065
205.051	0.32005
205.43	0.3223
205.808	0.32136
206.187	0.32002
206.565	0.32609
206.943	0.32158
207.322	0.32526
207.7	0.33254
208.078	0.33347
208.456	0.32884
208.835	0.3305
209.213	0.3309
209.591	0.33505
209.969	0.3397
210.347	0.34914
210.725	0.34748
211.103	0.34799
211.481	0.34705
211.859	0.34799
212.237	0.34744
212.614	0.34798
212.992	0.3487
213.37	0.34894
213.748	0.34847
214.125	0.35452
214.503	0.3577
214.881	0.36021
215.258	0.36348
215.636	0.35586
216.013	0.35362
216.391	0.35309
216.768	0.35705
217.145	0.35286
217.523	0.35104
217.9	0.3496
218.277	0.34602
218.655	0.35207
219.032	0.35264
219.409	0.35373
219.786	0.35203
220.163	0.35919
220.54	0.36578
220.917	0.36553
221.294	0.3707
221.671	0.37276
222.048	0.37387
222.425	0.36957
222.802	0.37619
223.179	0.37457
223.556	0.3808
223.932	0.37976
224.309	0.38114
224.686	0.37731
225.062	0.38248
225.439	0.3782
225.815	0.37772
226.192	0.3793
226.568	0.38018
226.945	0.37722
227.321	0.38303
227.698	0.39047
228.074	0.38025
228.45	0.37329
228.827	0.37468
229.203	0.37323
229.579	0.37021
229.955	0.36955
230.331	0.36638
230.707	0.36087
231.083	0.36066
231.46	0.36078
231.835	0.35882
232.211	0.35818
232.587	0.36574
232.963	0.36188
233.339	0.36592
233.715	0.36792
234.091	0.36662
234.466	0.36889
234.842	0.36909
235.218	0.37028
235.593	0.36979
235.969	0.37803
236.344	0.38419
236.72	0.3911
237.095	0.38549
237.471	0.38754
237.846	0.38885
238.222	0.39202
238.597	0.39542
238.972	0.39302
239.348	0.38372
239.723	0.39232
240.098	0.39398
240.473	0.39007
240.848	0.39421
241.223	0.39733
241.598	0.39767
241.973	0.40557
242.348	0.40596
242.723	0.40713
243.098	0.40866
243.473	0.40856
243.848	0.40614
244.223	0.40749
244.597	0.40667
244.972	0.41001
245.347	0.41245
245.721	0.40612
246.096	0.4056
246.47	0.40897
246.845	0.41393
247.219	0.42038
247.594	0.41834
247.968	0.42024
248.343	0.42043
248.717	0.42056
249.091	0.41677
249.466	0.4227
249.84	0.41818
250.214	0.42071
250.588	0.42594
250.962	0.4237
251.336	0.42346
251.71	0.42797
252.084	0.42936
252.458	0.4277
252.832	0.43
253.206	0.43667
253.58	0.44125
253.954	0.44856
254.328	0.44472
254.702	0.4505
255.075	0.45886
255.449	0.46378
255.823	0.46888
256.196	0.47327
256.57	0.47455
256.943	0.48658
257.317	0.48481
257.69	0.49212
258.064	0.49686
258.437	0.49671
258.81	0.4955
259.184	0.50074
259.557	0.49933
259.93	0.49911
260.303	0.50119
260.677	0.50438
261.05	0.50067
261.423	0.50687
261.796	0.51019
262.169	0.51577
262.542	0.51289
262.915	0.51133
263.288	0.51559
263.661	0.51743
264.033	0.5223
264.406	0.52813
264.779	0.53392
265.152	0.53742
265.524	0.53761
265.897	0.54317
266.27	0.54926
266.642	0.55741
267.015	0.56179
267.387	0.56936
267.76	0.57494
268.132	0.5826
268.504	0.58074
268.877	0.59282
269.249	0.59335
269.621	0.59415
269.994	0.5989
270.366	0.60669
270.738	0.60875
271.11	0.61189
271.482	0.61294
271.854	0.61872
272.226	0.62435
272.598	0.62362
272.97	0.63615
273.342	0.64571
273.714	0.64864
274.086	0.64828
274.458	0.65739
274.829	0.66061
275.201	0.66514
275.573	0.67164
275.944	0.67545
276.316	0.69137
276.688	0.69
277.059	0.69529
277.431	0.70827
277.802	0.72139
278.173	0.74035
278.545	0.77112
278.916	0.81395
279.287	0.87445
279.659	0.94739
280.03	1.04035
280.401	1.13879
280.772	1.23009
281.143	1.32608
281.515	1.41796
281.886	1.51027
282.257	1.58757
282.628	1.65637
282.998	1.71589
283.369	1.77127
283.74	1.81737
284.111	1.85735
284.482	1.89386
284.853	1.92647
285.223	1.94959
285.594	1.96878
285.965	1.98446
286.335	1.99749
286.706	2.00357
287.076	2.00915
287.447	2.01239
287.817	2.00749
288.188	2.00408
288.558	1.9993
288.928	1.99489
289.299	1.98399
289.669	1.97275
290.039	1.9598
290.409	1.94731
290.779	1.93598
291.149	1.92024
291.52	1.90665
291.89	1.89217
292.26	1.87632
292.629	1.86138
292.999	1.84718
293.369	1.83369
293.739	1.81934
294.109	1.80495
294.479	1.79135
294.848	1.77882
295.218	1.76625
295.588	1.75359
295.957	1.74055
296.327	1.72849
296.696	1.71549
297.066	1.70352
297.435	1.69253
297.805	1.68226
298.174	1.67088
298.544	1.65933
298.913	1.64893
299.282	1.63916
299.651	1.62888
300.021	1.61831
300.39	1.60879
300.759	1.59879
301.128	1.58941
301.497	1.58109
301.866	1.57234
302.235	1.564
302.604	1.55571
302.973	1.54678
303.342	1.53798
303.71	1.5297
304.079	1.52097
304.448	1.51235
304.817	1.50406
305.185	1.49465
305.554	1.48487
305.923	1.47563
306.291	1.46623
306.66	1.45702
307.028	1.44737
307.397	1.43847
307.765	1.43021
308.133	1.42099
308.502	1.41245
308.87	1.40354
309.238	1.39483
309.606	1.3867
309.975	1.37859
310.343	1.37068
310.711	1.36332
311.079	1.35618
311.447	1.34833
311.815	1.3415
312.183	1.33442
312.551	1.32701
312.919	1.31969
313.286	1.31221
313.654	1.30543
314.022	1.29881
314.39	1.29197
314.757	1.28554
315.125	1.27855
315.492	1.27185
315.86	1.26527
316.228	1.25874
316.595	1.25251
316.962	1.24603
317.33	1.23949
317.697	1.23321
318.065	1.22677
318.432	1.22
318.799	1.21352
319.166	1.20714
319.534	1.20064
319.901	1.19399
320.268	1.18805
320.635	1.18229
321.002	1.17662
321.369	1.17067
321.736	1.16499
322.103	1.15968
322.47	1.15399
322.836	1.14852
323.203	1.14283
323.57	1.13733
323.937	1.13164
324.303	1.12599
324.67	1.12041
325.037	1.11475
325.403	1.10889
325.77	1.10329
326.136	1.09778
326.503	1.09234
326.869	1.08703
327.235	1.08142
327.602	1.07632
327.968	1.07097
328.334	1.0659
328.7	1.06101
329.067	1.05612
329.433	1.05127
329.799	1.04637
330.165	1.04147
330.531	1.03678
330.897	1.0323
331.263	1.02753
331.629	1.02279
331.995	1.01794
332.36	1.01324
332.726	1.00875
333.092	1.00447
333.458	0.99976
333.823	0.99564
334.189	0.99102
334.554	0.98664
334.92	0.98222
335.286	0.97768
335.651	0.97313
336.016	0.96872
336.382	0.96436
336.747	0.96026
337.113	0.9559
337.478	0.95147
337.843	0.94709
338.208	0.94301
338.573	0.93866
338.939	0.93462
339.304	0.93064
339.669	0.92665
340.034	0.92256
340.399	0.91846
340.764	0.91434
341.129	0.9102
341.493	0.90592
341.858	0.90209
342.223	0.89792
342.588	0.89382
342.952	0.88974
343.317	0.88587
343.682	0.88188
344.046	0.87784
344.411	0.87373
344.775	0.86966
345.14	0.86565
345.504	0.86169
345.869	0.85751
346.233	0.8533
346.597	0.84914
346.962	0.84506
347.326	0.84111
347.69	0.83704
348.054	0.83291
348.418	0.82869
348.782	0.82486
349.146	0.82087
349.51	0.8165
349.874	0.81216
350.238	0.80835
350.602	0.80424
350.966	0.80019
351.33	0.79623
351.693	0.79219
352.057	0.78814
352.421	0.78425
352.784	0.7802
353.148	0.77619
353.512	0.77199
353.875	0.76813
354.239	0.76412
354.602	0.7601
354.966	0.75611
355.329	0.75216
355.692	0.74809
356.056	0.74412
356.419	0.74006
356.782	0.73602
357.145	0.73216
357.508	0.72841
357.871	0.72435
358.234	0.72076
358.597	0.71702
358.96	0.71328
359.323	0.70962
359.686	0.70584
360.049	0.70211
360.412	0.69857
360.775	0.695
361.137	0.69168
361.5	0.68794
361.863	0.68453
362.225	0.68094
362.588	0.67743
362.951	0.67412
363.313	0.67084
363.675	0.66769
364.038	0.66454
364.4	0.66127
364.763	0.65821
365.125	0.65539
365.487	0.65253
365.849	0.64959
366.212	0.6466
366.574	0.64382
366.936	0.64095
367.298	0.63834
367.66	0.63571
368.022	0.63306
368.384	0.63062
368.746	0.62774
369.108	0.62527
369.469	0.62268
369.831	0.62031
370.193	0.61797
370.555	0.61534
370.916	0.6128
371.278	0.61052
371.64	0.60817
372.001	0.60601
372.363	0.60377
372.724	0.60131
373.086	0.59922
373.447	0.59703
373.808	0.59514
374.17	0.59286
374.531	0.59085
374.892	0.58894
375.253	0.58686
375.615	0.58496
375.976	0.58289
376.337	0.58116
376.698	0.57923
377.059	0.57744
377.42	0.57555
377.781	0.57364
378.141	0.57197
378.502	0.57046
378.863	0.56855
379.224	0.56689
379.585	0.56524
379.945	0.5637
380.306	0.56237
380.666	0.56063
381.027	0.5592
381.388	0.55767
381.748	0.55637
382.108	0.55485
382.469	0.55297
382.829	0.55153
383.19	0.54985
383.55	0.54827
383.91	0.5466
384.27	0.54519
384.63	0.5436
384.991	0.54227
385.351	0.54079
385.711	0.53924
386.071	0.53766
386.431	0.5361
386.791	0.53454
387.15	0.53305
387.51	0.53161
387.87	0.52995
388.23	0.52862
388.589	0.52709
388.949	0.52577
389.309	0.52453
389.668	0.5234
390.028	0.52242
390.387	0.52098
390.747	0.51983
391.106	0.51867
391.466	0.51755
391.825	0.51634
392.184	0.51519
392.544	0.51374
392.903	0.51251
393.262	0.51143
393.621	0.51026
393.98	0.50919
394.339	0.50805
394.698	0.50698
395.057	0.50586
395.416	0.50486
395.775	0.50381
396.134	0.50267
396.493	0.50157
396.852	0.50028
397.211	0.49901
397.569	0.49777
397.928	0.49663
398.287	0.49533
398.645	0.49416
399.004	0.49303
399.362	0.49174
399.721	0.49048
400.079	0.48962
400.438	0.48871
400.796	0.4875
401.154	0.48647
401.512	0.4854
401.871	0.48454
402.229	0.48361
402.587	0.48243
402.945	0.48146
403.303	0.48022
403.661	0.47921
404.019	0.47798
404.377	0.47691
404.735	0.47588
405.093	0.4748
405.451	0.47392
405.808	0.47318
406.166	0.47225
406.524	0.47153
406.882	0.47088
407.239	0.46989
407.597	0.46884
407.954	0.46769
408.312	0.46692
408.669	0.46592
409.027	0.46507
409.384	0.46408
409.741	0.46309
410.099	0.46212
410.456	0.46127
410.813	0.4604
411.17	0.45956
411.527	0.45883
411.884	0.45799
412.242	0.45706
412.599	0.45637
412.956	0.45554
413.312	0.45465
413.669	0.45379
414.026	0.45283
414.383	0.45189
414.74	0.45123
415.096	0.45037
415.453	0.44978
415.81	0.44894
416.166	0.44825
416.523	0.44722
416.879	0.44633
417.236	0.4453
417.592	0.44475
417.949	0.44389
418.305	0.44352
418.661	0.44299
419.018	0.44229
419.374	0.44172
419.73	0.44117
420.086	0.44051
420.442	0.43987
420.798	0.43922
421.154	0.43875
421.51	0.43814
421.866	0.43769
422.222	0.4372
422.578	0.43671
422.934	0.43605
423.29	0.43535
423.646	0.43488
424.001	0.43433
424.357	0.43366
424.713	0.4331
425.068	0.43209
425.424	0.43129
425.779	0.43014
426.135	0.429
426.49	0.42798
426.845	0.42686
427.201	0.42589
427.556	0.42534
427.911	0.42474
428.266	0.42424
428.622	0.42338
428.977	0.42273
429.332	0.42205
429.687	0.42147
430.042	0.42094
430.397	0.42008
430.752	0.41976
431.107	0.41895
431.461	0.41884
431.816	0.41858
432.171	0.41827
432.526	0.41781
432.88	0.4175
433.235	0.41707
433.59	0.41657
433.944	0.41636
434.299	0.41605
434.653	0.41537
435.008	0.41447
435.362	0.41398
435.716	0.41342
436.071	0.41288
436.425	0.41258
436.779	0.41225
437.133	0.41198
437.487	0.41185
437.841	0.41208
438.195	0.41185
438.549	0.41156
438.903	0.41094
439.257	0.4104
439.611	0.40987
439.965	0.40982
440.319	0.40934
440.673	0.40913
441.026	0.40879
441.38	0.40802
441.734	0.40747
442.087	0.40751
442.441	0.40697
442.794	0.40674
443.148	0.40626
443.501	0.40594
443.855	0.40559
444.208	0.4056
444.561	0.40541
444.915	0.40496
445.268	0.40486
445.621	0.40456
445.974	0.40452
446.327	0.40427
446.68	0.40441
447.033	0.4043
447.386	0.40425
447.739	0.40415
448.092	0.40382
448.445	0.40388
448.798	0.40404
449.15	0.40438
449.503	0.40406
449.856	0.40401
450.209	0.40364
450.561	0.40382
450.914	0.40388
451.266	0.40379
451.619	0.40348
451.971	0.40312
452.323	0.40296
452.676	0.40276
453.028	0.40253
453.38	0.40216
453.733	0.40233
454.085	0.40193
454.437	0.40191
454.789	0.40144
455.141	0.40091
455.493	0.4007
455.845	0.40077
456.197	0.4009
456.549	0.40038
456.901	0.40049
457.253	0.40062
457.604	0.40072
457.956	0.40017
458.308	0.39965
458.659	0.39943
459.011	0.39956
459.362	0.39962
459.714	0.39957
460.065	0.39931
460.417	0.39925
460.768	0.39928
461.12	0.39914
461.471	0.39964
461.822	0.39989
462.173	0.4003
462.525	0.40075
462.876	0.40086
463.227	0.40081
463.578	0.40069
463.929	0.40075
464.28	0.40063
464.631	0.40042
464.982	0.40033
465.332	0.40048
465.683	0.401
466.034	0.40124
466.385	0.40118
466.735	0.40131
467.086	0.40147
467.437	0.40161
467.787	0.40188
468.138	0.40202
468.488	0.40246
468.839	0.40236
469.189	0.4022
469.539	0.40216
469.89	0.40236
470.24	0.40296
470.59	0.40319
470.94	0.40319
471.29	0.40387
471.64	0.40436
471.99	0.40518
472.34	0.40574
472.69	0.40647
473.04	0.40694
473.39	0.40748
473.74	0.4079
474.09	0.40859
474.439	0.40923
474.789	0.40997
475.139	0.41036
475.488	0.411
475.838	0.41157
476.188	0.4122
476.537	0.41284
476.886	0.41332
477.236	0.41389
477.585	0.4146
477.935	0.41559
478.284	0.41666
478.633	0.4174
478.982	0.41836
479.331	0.41896
479.68	0.41964
480.03	0.42038
480.379	0.42148
480.728	0.42218
481.076	0.42306
481.425	0.42374
481.774	0.42481
482.123	0.42596
482.472	0.42724
482.821	0.42815
483.169	0.42927
483.518	0.43025
483.866	0.43123
484.215	0.43241
484.563	0.43357
484.912	0.43454
485.26	0.43545
485.609	0.43635
485.957	0.43726
486.305	0.4383
486.654	0.43928
487.002	0.44047
487.35	0.44146
487.698	0.44235
488.046	0.44359
488.394	0.44483
488.742	0.44597
489.09	0.44701
489.438	0.44797
489.786	0.44892
490.134	0.45028
490.482	0.45156
490.829	0.45292
491.177	0.45438
491.525	0.4555
491.872	0.45677
492.22	0.45779
492.567	0.45906
492.915	0.46055
493.262	0.46207
493.61	0.46339
493.957	0.46491
494.304	0.46635
494.652	0.468
494.999	0.46953
495.346	0.47097
495.693	0.47233
496.04	0.47418
496.387	0.47564
496.734	0.47718
497.081	0.47888
497.428	0.48062
497.775	0.48175
498.122	0.4835
498.469	0.48515
498.816	0.48689
499.162	0.4886
499.509	0.49052
499.856	0.49224
500.202	0.49409
500.549	0.49563
500.895	0.49736
501.242	0.49926
501.588	0.50095
501.935	0.50277
502.281	0.50483
502.627	0.50671
502.973	0.50838
503.32	0.51014
503.666	0.51179
504.012	0.51347
504.358	0.51524
504.704	0.51681
505.05	0.5189
505.396	0.52047
505.742	0.522
506.088	0.52388
506.433	0.52555
506.779	0.52695
507.125	0.52852
507.471	0.53017
507.816	0.53155
508.162	0.53303
508.507	0.53461
508.853	0.5365
509.198	0.53809
509.544	0.5394
509.889	0.54082
510.234	0.54255
510.58	0.54411
510.925	0.54572
511.27	0.54734
511.615	0.54891
511.96	0.55067
512.306	0.55199
512.651	0.55325
512.996	0.5547
513.341	0.55623
513.685	0.55781
514.03	0.55937
514.375	0.56068
514.72	0.56189
515.065	0.56341
515.409	0.56487
515.754	0.56593
516.099	0.56672
516.443	0.56782
516.788	0.56893
517.132	0.56994
517.476	0.5711
517.821	0.57184
518.165	0.5728
518.51	0.57366
518.854	0.57449
519.198	0.57516
519.542	0.57587
519.886	0.57661
520.23	0.57728
520.574	0.57794
520.918	0.57825
521.262	0.57868
521.606	0.57928
521.95	0.57986
522.294	0.58028
522.638	0.58049
522.981	0.58082
523.325	0.58133
523.669	0.58164
524.012	0.58186
524.356	0.58199
524.699	0.58162
525.043	0.58149
525.386	0.58146
525.73	0.58134
526.073	0.58117
526.416	0.58109
526.76	0.58094
527.103	0.5806
527.446	0.58018
527.789	0.57946
528.132	0.57899
528.475	0.57835
528.818	0.5775
529.161	0.57665
529.504	0.57613
529.847	0.5754
530.19	0.57458
530.532	0.57341
530.875	0.57236
531.218	0.5713
531.56	0.57049
531.903	0.56951
532.246	0.56818
532.588	0.567
532.93	0.56571
533.273	0.56409
533.615	0.56249
533.958	0.56128
534.3	0.55997
534.642	0.55862
534.984	0.55726
535.326	0.55597
535.669	0.55437
536.011	0.55294
536.353	0.55109
536.695	0.54919
537.037	0.54727
537.378	0.54541
537.72	0.54375
538.062	0.54166
538.404	0.53968
538.746	0.53767
539.087	0.53581
539.429	0.5341
539.77	0.53178
540.112	0.52943
540.454	0.52743
540.795	0.5252
541.136	0.52256
541.478	0.52009
541.819	0.51773
542.16	0.5152
542.502	0.51266
542.843	0.51038
543.184	0.50781
543.525	0.50546
543.866	0.50305
544.207	0.50075
544.548	0.49835
544.889	0.49596
545.23	0.49346
545.571	0.49094
545.911	0.48819
546.252	0.48538
546.593	0.48285
546.934	0.48051
547.274	0.47791
547.615	0.47528
547.955	0.47272
548.296	0.47029
548.636	0.46763
548.977	0.46509
549.317	0.46279
549.657	0.46014
549.997	0.45754
550.338	0.45508
550.678	0.45255
551.018	0.44974
551.358	0.44704
551.698	0.44421
552.038	0.44154
552.378	0.43888
552.718	0.43629
553.058	0.43372
553.398	0.43129
553.737	0.42867
554.077	0.42584
554.417	0.42335
554.756	0.42075
555.096	0.41814
555.435	0.41552
555.775	0.41302
556.114	0.41043
556.454	0.40759
556.793	0.40507
557.133	0.4027
557.472	0.40007
557.811	0.39753
558.15	0.3951
558.489	0.3925
558.829	0.39021
559.168	0.38767
559.507	0.38536
559.846	0.38282
560.184	0.38043
560.523	0.37798
560.862	0.37543
561.201	0.37318
561.54	0.37072
561.878	0.36821
562.217	0.3658
562.556	0.36345
562.894	0.36087
563.233	0.35855
563.571	0.35634
563.91	0.35388
564.248	0.35133
564.586	0.34897
564.925	0.34659
565.263	0.34435
565.601	0.34212
565.939	0.33974
566.277	0.3375
566.616	0.33525
566.954	0.33315
567.292	0.33072
567.63	0.3282
567.967	0.32596
568.305	0.32369
568.643	0.32159
568.981	0.31948
569.319	0.31747
569.656	0.31509
569.994	0.31295
570.331	0.31088
570.669	0.30863
571.006	0.30655
571.344	0.30445
571.681	0.30241
572.019	0.30054
572.356	0.29854
572.693	0.29641
573.03	0.29446
573.368	0.29234
573.705	0.29027
574.042	0.28813
574.379	0.28629
574.716	0.28461
575.053	0.28276
575.39	0.28103
575.727	0.27905
576.063	0.27721
576.4	0.27506
576.737	0.27345
577.074	0.27189
577.41	0.26991
577.747	0.26824
578.083	0.26643
578.42	0.2646
578.756	0.26289
579.093	0.26103
579.429	0.25922
579.766	0.25768
580.102	0.25597
580.438	0.25432
580.774	0.25258
581.11	0.25096
581.446	0.24929
581.782	0.24762
582.119	0.246
582.454	0.24433
582.79	0.24297
583.126	0.24142
583.462	0.24006
583.798	0.23849
584.134	0.23685
584.469	0.23541
584.805	0.23391
585.141	0.23264
585.476	0.23129
585.812	0.22985
586.147	0.22847
586.482	0.22703
586.818	0.22551
587.153	0.22399
587.488	0.22263
587.824	0.22127
588.159	0.21993
588.494	0.21874
588.829	0.21747
589.164	0.2163
589.499	0.21507
589.834	0.21358
590.169	0.21241
590.504	0.21104
590.839	0.20968
591.174	0.20829
591.508	0.20696
591.843	0.20569
592.178	0.2044
592.512	0.20324
592.847	0.20207
593.181	0.20079
593.516	0.19965
593.85	0.19847
594.185	0.19728
594.519	0.19617
594.853	0.19515
595.187	0.19406
595.522	0.19281
595.856	0.19166
596.19	0.19053
596.524	0.18926
596.858	0.18834
597.192	0.18721
