Data from AgNP_Jan1_slurryTest_430nm_50mJ_300s_Absorbance_11-21-18-850.txt Node
Date: Mon Jan 30 11:21:18 EST 2023
User: UV-vis
Spectrometer: FLMS04918
Trigger mode: 0
Integration Time (sec): 1.080000E-3
Scans to average: 10
Electric dark correction enabled: true
Nonlinearity correction enabled: false
Boxcar width: 10
XAxis mode: Wavelengths
Number of Pixels in Spectrum: 2048
>>>>>Begin Spectral Data<<<<<
179.23	-0
179.611	-0
179.992	-0
180.373	1.3748
180.754	-0
181.134	-0
181.515	-0
181.896	-0
182.276	-0
182.657	-0
183.038	-0
183.418	-0
183.799	-0
184.179	-0.13928
184.56	0.00505
184.94	-0.00657
185.32	0.00441
185.701	0.02698
186.081	0.02347
186.461	0.01741
186.842	0.02879
187.222	0.02572
187.602	0.02767
187.982	0.02486
188.362	0.02418
188.742	0.01995
189.122	0.02444
189.502	0.02147
189.882	0.01732
190.262	0.01448
190.642	0.01561
191.022	0.0138
191.402	0.01049
191.781	0.00921
192.161	0.01363
192.541	0.01549
192.92	0.01637
193.3	0.00992
193.68	0.00852
194.059	0.01319
194.439	0.01085
194.818	0.01125
195.198	0.0094
195.577	0.01048
195.957	0.01081
196.336	0.00898
196.715	0.00862
197.094	0.00654
197.474	0.00714
197.853	0.00946
198.232	0.0132
198.611	0.01048
198.99	0.00905
199.369	0.01097
199.748	0.0124
200.127	0.00965
200.506	0.00966
200.885	0.00995
201.264	0.01382
201.643	0.00916
202.022	0.00711
202.401	0.00676
202.779	0.00412
203.158	0.00616
203.537	0.00421
203.915	0.00359
204.294	0.00551
204.673	0.00873
205.051	0.00965
205.43	0.01036
205.808	0.00881
206.187	0.00704
206.565	0.01096
206.943	0.01317
207.322	0.0126
207.7	0.0154
208.078	0.01691
208.456	0.01388
208.835	0.01541
209.213	0.01291
209.591	0.01718
209.969	0.01886
210.347	0.01914
210.725	0.01644
211.103	0.01634
211.481	0.01772
211.859	0.01947
212.237	0.01794
212.614	0.01613
212.992	0.01384
213.37	0.0134
213.748	0.01533
214.125	0.01643
214.503	0.0162
214.881	0.016
215.258	0.01702
215.636	0.0167
216.013	0.01568
216.391	0.01706
216.768	0.0189
217.145	0.02081
217.523	0.02059
217.9	0.01702
218.277	0.0185
218.655	0.01776
219.032	0.01793
219.409	0.01704
219.786	0.01547
220.163	0.01565
220.54	0.01929
220.917	0.02003
221.294	0.02085
221.671	0.0181
222.048	0.01713
222.425	0.01748
222.802	0.0195
223.179	0.01917
223.556	0.01641
223.932	0.01668
224.309	0.01794
224.686	0.01346
225.062	0.01285
225.439	0.00844
225.815	0.00894
226.192	0.00722
226.568	0.00708
226.945	0.00598
227.321	0.00894
227.698	0.01134
228.074	0.00801
228.45	0.00522
228.827	0.004
229.203	0.00219
229.579	0.00269
229.955	0.00216
230.331	-0.0015
230.707	-0.00542
231.083	-0.00264
231.46	-0.00296
231.835	-0.00212
232.211	-0.00226
232.587	0.0004
232.963	0.0035
233.339	0.00815
233.715	0.00978
234.091	0.01106
234.466	0.01594
234.842	0.02113
235.218	0.01921
235.593	0.01977
235.969	0.02648
236.344	0.02496
236.72	0.02974
237.095	0.02914
237.471	0.02621
237.846	0.02419
238.222	0.02777
238.597	0.03297
238.972	0.03048
239.348	0.02944
239.723	0.03137
240.098	0.03114
240.473	0.02986
240.848	0.03034
241.223	0.03203
241.598	0.02831
241.973	0.02882
242.348	0.02596
242.723	0.02242
243.098	0.02167
243.473	0.02292
243.848	0.02072
244.223	0.0254
244.597	0.02581
244.972	0.02544
245.347	0.03046
245.721	0.0329
246.096	0.02936
246.47	0.0281
246.845	0.02706
247.219	0.02991
247.594	0.02702
247.968	0.02536
248.343	0.02424
248.717	0.02274
249.091	0.01822
249.466	0.0252
249.84	0.02532
250.214	0.02737
250.588	0.02605
250.962	0.02696
251.336	0.02547
251.71	0.02586
252.084	0.02638
252.458	0.02501
252.832	0.02517
253.206	0.02578
253.58	0.02606
253.954	0.0291
254.328	0.02884
254.702	0.02994
255.075	0.02987
255.449	0.03069
255.823	0.031
256.196	0.03147
256.57	0.03154
256.943	0.03429
257.317	0.02954
257.69	0.03164
258.064	0.02975
258.437	0.03089
258.81	0.03274
259.184	0.03248
259.557	0.03256
259.93	0.02932
260.303	0.02858
260.677	0.02784
261.05	0.02893
261.423	0.03097
261.796	0.02987
262.169	0.02891
262.542	0.02929
262.915	0.02949
263.288	0.03068
263.661	0.02985
264.033	0.03143
264.406	0.03364
264.779	0.032
265.152	0.03293
265.524	0.03268
265.897	0.03364
266.27	0.03185
266.642	0.03001
267.015	0.02966
267.387	0.03016
267.76	0.02952
268.132	0.03049
268.504	0.0341
268.877	0.03068
269.249	0.0304
269.621	0.03141
269.994	0.03203
270.366	0.03267
270.738	0.03168
271.11	0.0318
271.482	0.03532
271.854	0.03588
272.226	0.03256
272.598	0.03437
272.97	0.03622
273.342	0.03582
273.714	0.03712
274.086	0.03949
274.458	0.04121
274.829	0.04283
275.201	0.04233
275.573	0.04412
275.944	0.04489
276.316	0.04488
276.688	0.04691
277.059	0.04744
277.431	0.04803
277.802	0.0475
278.173	0.04777
278.545	0.05043
278.916	0.05072
279.287	0.05195
279.659	0.05616
280.03	0.05937
280.401	0.06229
280.772	0.06517
281.143	0.06798
281.515	0.07007
281.886	0.07142
282.257	0.07212
282.628	0.07315
282.998	0.07433
283.369	0.07464
283.74	0.07476
284.111	0.07489
284.482	0.07471
284.853	0.07446
285.223	0.07437
285.594	0.07425
285.965	0.07406
286.335	0.07362
286.706	0.07354
287.076	0.07313
287.447	0.0727
287.817	0.07247
288.188	0.07202
288.558	0.07158
288.928	0.07097
289.299	0.07039
289.669	0.06981
290.039	0.06914
290.409	0.06847
290.779	0.06763
291.149	0.06696
291.52	0.06628
291.89	0.06554
292.26	0.0649
292.629	0.06423
292.999	0.0636
293.369	0.06286
293.739	0.06224
294.109	0.06167
294.479	0.06097
294.848	0.06031
295.218	0.05975
295.588	0.05899
295.957	0.05848
296.327	0.05791
296.696	0.05737
297.066	0.05684
297.435	0.05625
297.805	0.05585
298.174	0.05529
298.544	0.05473
298.913	0.05421
299.282	0.0536
299.651	0.05302
300.021	0.05246
300.39	0.05189
300.759	0.05123
301.128	0.05078
301.497	0.05021
301.866	0.04969
302.235	0.04918
302.604	0.04882
302.973	0.04833
303.342	0.04792
303.71	0.04739
304.079	0.04675
304.448	0.04626
304.817	0.04572
305.185	0.04516
305.554	0.04461
305.923	0.04401
306.291	0.04348
306.66	0.04288
307.028	0.04229
307.397	0.04179
307.765	0.04128
308.133	0.04071
308.502	0.04024
308.87	0.03955
309.238	0.0391
309.606	0.03869
309.975	0.03822
310.343	0.03766
310.711	0.03723
311.079	0.03685
311.447	0.03645
311.815	0.0362
312.183	0.03585
312.551	0.03547
312.919	0.03521
313.286	0.03489
313.654	0.03473
314.022	0.03455
314.39	0.03439
314.757	0.03428
315.125	0.03408
315.492	0.03398
315.86	0.03387
316.228	0.03372
316.595	0.03377
316.962	0.03365
317.33	0.03342
317.697	0.03328
318.065	0.0331
318.432	0.0328
318.799	0.03258
319.166	0.03226
319.534	0.03188
319.901	0.0316
320.268	0.03142
320.635	0.03115
321.002	0.03084
321.369	0.03052
321.736	0.03033
322.103	0.03011
322.47	0.02992
322.836	0.02973
323.203	0.02945
323.57	0.02929
323.937	0.0291
324.303	0.02891
324.67	0.02866
325.037	0.02846
325.403	0.02824
325.77	0.02815
326.136	0.02807
326.503	0.02788
326.869	0.02777
327.235	0.02772
327.602	0.02765
327.968	0.02742
328.334	0.02724
328.7	0.02712
329.067	0.02706
329.433	0.0268
329.799	0.02666
330.165	0.02649
330.531	0.02639
330.897	0.02623
331.263	0.02613
331.629	0.02604
331.995	0.02585
332.36	0.0258
332.726	0.02576
333.092	0.02568
333.458	0.02559
333.823	0.02561
334.189	0.02567
334.554	0.02573
334.92	0.02572
335.286	0.02578
335.651	0.02579
336.016	0.02588
336.382	0.02593
336.747	0.02588
337.113	0.02594
337.478	0.0259
337.843	0.02586
338.208	0.02596
338.573	0.02597
338.939	0.02593
339.304	0.0259
339.669	0.02597
340.034	0.02595
340.399	0.02606
340.764	0.02609
341.129	0.02608
341.493	0.0261
341.858	0.02604
342.223	0.02601
342.588	0.02603
342.952	0.02585
343.317	0.02596
343.682	0.02586
344.046	0.02583
344.411	0.02583
344.775	0.02586
345.14	0.02586
345.504	0.02598
345.869	0.02585
346.233	0.0259
346.597	0.02591
346.962	0.02606
347.326	0.02609
347.69	0.02606
348.054	0.026
348.418	0.02604
348.782	0.02612
349.146	0.02613
349.51	0.02614
349.874	0.0262
350.238	0.02629
350.602	0.02639
350.966	0.02641
351.33	0.02663
351.693	0.02669
352.057	0.02683
352.421	0.02688
352.784	0.02696
353.148	0.02703
353.512	0.02712
353.875	0.02722
354.239	0.02723
354.602	0.02719
354.966	0.02721
355.329	0.0273
355.692	0.02731
356.056	0.02735
356.419	0.02746
356.782	0.0275
357.145	0.02757
357.508	0.02761
357.871	0.02763
358.234	0.02776
358.597	0.02782
358.96	0.02788
359.323	0.02798
359.686	0.02798
360.049	0.02808
360.412	0.02819
360.775	0.02813
361.137	0.02827
361.5	0.02835
361.863	0.02857
362.225	0.02863
362.588	0.02877
362.951	0.02897
363.313	0.02918
363.675	0.02945
364.038	0.02957
364.4	0.02973
364.763	0.02986
365.125	0.03004
365.487	0.03023
365.849	0.03041
366.212	0.03051
366.574	0.0306
366.936	0.0307
367.298	0.03086
367.66	0.0309
368.022	0.03108
368.384	0.03133
368.746	0.03138
369.108	0.03152
369.469	0.03168
369.831	0.032
370.193	0.03208
370.555	0.03202
370.916	0.03201
371.278	0.03203
371.64	0.0321
372.001	0.03224
372.363	0.03233
372.724	0.03245
373.086	0.03259
373.447	0.03259
373.808	0.03271
374.17	0.03275
374.531	0.03287
374.892	0.03304
375.253	0.03324
375.615	0.0334
375.976	0.03358
376.337	0.03377
376.698	0.03394
377.059	0.03403
377.42	0.034
377.781	0.03439
378.141	0.0348
378.502	0.03511
378.863	0.03535
379.224	0.03549
379.585	0.03572
379.945	0.03594
380.306	0.03611
380.666	0.03619
381.027	0.03649
381.388	0.03681
381.748	0.03716
382.108	0.03748
382.469	0.03764
382.829	0.03789
383.19	0.03806
383.55	0.03825
383.91	0.03843
384.27	0.03869
384.63	0.03902
384.991	0.03943
385.351	0.03962
385.711	0.03979
386.071	0.03989
386.431	0.04008
386.791	0.04041
387.15	0.04042
387.51	0.0406
387.87	0.0407
388.23	0.041
388.589	0.04121
388.949	0.04151
389.309	0.04188
389.668	0.04213
390.028	0.04248
390.387	0.04259
390.747	0.04286
391.106	0.04315
391.466	0.04343
391.825	0.04351
392.184	0.0436
392.544	0.04361
392.903	0.04353
393.262	0.04369
393.621	0.04395
393.98	0.04418
394.339	0.04444
394.698	0.04482
395.057	0.04515
395.416	0.04552
395.775	0.04578
396.134	0.04595
396.493	0.04604
396.852	0.04603
397.211	0.04608
397.569	0.04608
397.928	0.04625
398.287	0.0464
398.645	0.04635
399.004	0.04628
399.362	0.04641
399.721	0.04647
400.079	0.0468
400.438	0.04718
400.796	0.04738
401.154	0.04758
401.512	0.04779
401.871	0.04794
402.229	0.04832
402.587	0.0484
402.945	0.04858
403.303	0.04871
403.661	0.04891
404.019	0.04906
404.377	0.04917
404.735	0.04932
405.093	0.04957
405.451	0.04982
405.808	0.04982
406.166	0.05005
406.524	0.05046
406.882	0.05084
407.239	0.05104
407.597	0.05117
407.954	0.05119
408.312	0.05121
408.669	0.05134
409.027	0.05146
409.384	0.05163
409.741	0.05158
410.099	0.0517
410.456	0.05181
410.813	0.05182
411.17	0.05179
411.527	0.05181
411.884	0.05192
412.242	0.05205
412.599	0.05215
412.956	0.0522
413.312	0.05239
413.669	0.05245
414.026	0.05243
414.383	0.05236
414.74	0.05236
415.096	0.05222
415.453	0.05227
415.81	0.05245
416.166	0.05245
416.523	0.05239
416.879	0.0522
417.236	0.05207
417.592	0.05207
417.949	0.05222
418.305	0.0525
418.661	0.05277
419.018	0.05292
419.374	0.05304
419.73	0.05321
420.086	0.0532
420.442	0.05339
420.798	0.05345
421.154	0.05353
421.51	0.05354
421.866	0.05366
422.222	0.05394
422.578	0.05418
422.934	0.05426
423.29	0.05421
423.646	0.05431
424.001	0.05439
424.357	0.05458
424.713	0.05485
425.068	0.05509
425.424	0.05486
425.779	0.05464
426.135	0.05464
426.49	0.05459
426.845	0.05476
427.201	0.05475
427.556	0.05508
427.911	0.05516
428.266	0.05549
428.622	0.05583
428.977	0.05606
429.332	0.05611
429.687	0.05614
430.042	0.05619
430.397	0.05651
430.752	0.05666
431.107	0.05656
431.461	0.05659
431.816	0.05647
432.171	0.05628
432.526	0.05623
432.88	0.05628
433.235	0.05629
433.59	0.05616
433.944	0.0565
434.299	0.05623
434.653	0.05623
435.008	0.05624
435.362	0.056
435.716	0.05588
436.071	0.05573
436.425	0.05567
436.779	0.0558
437.133	0.0557
437.487	0.05582
437.841	0.05589
438.195	0.05598
438.549	0.05644
438.903	0.05663
439.257	0.05683
439.611	0.05708
439.965	0.05711
440.319	0.05725
440.673	0.0573
441.026	0.05732
441.38	0.05699
441.734	0.05682
442.087	0.0569
442.441	0.05684
442.794	0.05688
443.148	0.05665
443.501	0.05672
443.855	0.05683
444.208	0.05691
444.561	0.05694
444.915	0.05663
445.268	0.05665
445.621	0.05649
445.974	0.05619
446.327	0.05594
446.68	0.05595
447.033	0.05603
447.386	0.05591
447.739	0.05597
448.092	0.05587
448.445	0.05576
448.798	0.05562
449.15	0.05572
449.503	0.05539
449.856	0.05533
450.209	0.05515
450.561	0.05505
450.914	0.05486
451.266	0.0549
451.619	0.05463
451.971	0.05435
452.323	0.05452
452.676	0.05423
453.028	0.05399
453.38	0.05398
453.733	0.05378
454.085	0.05354
454.437	0.05326
454.789	0.05306
455.141	0.05268
455.493	0.05265
455.845	0.05283
456.197	0.05272
456.549	0.05253
456.901	0.05249
457.253	0.052
457.604	0.05169
457.956	0.05153
458.308	0.05131
458.659	0.05097
459.011	0.05091
459.362	0.05075
459.714	0.05046
460.065	0.05024
460.417	0.0502
460.768	0.04997
461.12	0.04985
461.471	0.04966
461.822	0.04963
462.173	0.04941
462.525	0.04948
462.876	0.04923
463.227	0.04859
463.578	0.04825
463.929	0.04808
464.28	0.04785
464.631	0.04782
464.982	0.04762
465.332	0.04755
465.683	0.04731
466.034	0.04706
466.385	0.0467
466.735	0.04679
467.086	0.04647
467.437	0.04629
467.787	0.0461
468.138	0.04582
468.488	0.04569
468.839	0.04555
469.189	0.04504
469.539	0.0448
469.89	0.04439
470.24	0.04422
470.59	0.04415
470.94	0.04412
471.29	0.04398
471.64	0.04379
471.99	0.04367
472.34	0.04368
472.69	0.04349
473.04	0.04353
473.39	0.04333
473.74	0.04317
474.09	0.04304
474.439	0.04304
474.789	0.04299
475.139	0.04308
475.488	0.04278
475.838	0.04279
476.188	0.04258
476.537	0.04238
476.886	0.04228
477.236	0.04202
477.585	0.04173
477.935	0.04155
478.284	0.04134
478.633	0.04116
478.982	0.0411
479.331	0.04075
479.68	0.04036
480.03	0.04026
480.379	0.04019
480.728	0.04002
481.076	0.04002
481.425	0.03979
481.774	0.03967
482.123	0.03939
482.472	0.03898
482.821	0.03898
483.169	0.03878
483.518	0.03879
483.866	0.03882
484.215	0.03874
484.563	0.03876
484.912	0.03888
485.26	0.03893
485.609	0.03892
485.957	0.03878
486.305	0.03884
486.654	0.03887
487.002	0.03884
487.35	0.03875
487.698	0.03849
488.046	0.03851
488.394	0.03826
488.742	0.03805
489.09	0.03809
489.438	0.03814
489.786	0.0381
490.134	0.03798
490.482	0.03786
490.829	0.03766
491.177	0.03726
491.525	0.03703
491.872	0.03674
492.22	0.03633
492.567	0.03602
492.915	0.03576
493.262	0.03573
493.61	0.0353
493.957	0.03508
494.304	0.035
494.652	0.03489
494.999	0.03478
495.346	0.03462
495.693	0.03456
496.04	0.03463
496.387	0.03439
496.734	0.03421
497.081	0.034
497.428	0.03388
497.775	0.03359
498.122	0.03356
498.469	0.0338
498.816	0.03381
499.162	0.034
499.509	0.03397
499.856	0.034
500.202	0.03399
500.549	0.03364
500.895	0.03369
501.242	0.03369
501.588	0.03366
501.935	0.03334
502.281	0.03327
502.627	0.0331
502.973	0.03277
503.32	0.03267
503.666	0.03252
504.012	0.03249
504.358	0.03248
504.704	0.03227
505.05	0.03223
505.396	0.03239
505.742	0.03218
506.088	0.03222
506.433	0.03184
506.779	0.03165
507.125	0.03147
507.471	0.03141
507.816	0.03141
508.162	0.03119
508.507	0.03101
508.853	0.03078
509.198	0.0309
509.544	0.03071
509.889	0.0305
510.234	0.03051
510.58	0.03036
510.925	0.03009
511.27	0.02995
511.615	0.02988
511.96	0.02995
512.306	0.0297
512.651	0.02912
512.996	0.02882
513.341	0.02845
513.685	0.02852
514.03	0.02846
514.375	0.02842
514.72	0.02817
515.065	0.02805
515.409	0.0281
515.754	0.02807
516.099	0.02802
516.443	0.0278
516.788	0.02792
517.132	0.02787
517.476	0.02794
517.821	0.02769
518.165	0.02771
518.51	0.02759
518.854	0.02741
519.198	0.02724
519.542	0.02745
519.886	0.02732
520.23	0.02727
520.574	0.0272
520.918	0.02704
521.262	0.02708
521.606	0.02696
521.95	0.02701
522.294	0.02698
522.638	0.0268
522.981	0.02667
523.325	0.02654
523.669	0.02647
524.012	0.02621
524.356	0.02604
524.699	0.0258
525.043	0.02585
525.386	0.02572
525.73	0.02564
526.073	0.02568
526.416	0.02578
526.76	0.02555
527.103	0.02575
527.446	0.02565
527.789	0.02561
528.132	0.02556
528.475	0.02548
528.818	0.02527
529.161	0.02515
529.504	0.02506
529.847	0.02494
530.19	0.02482
530.532	0.02484
530.875	0.02483
531.218	0.02471
531.56	0.02477
531.903	0.02475
532.246	0.02456
532.588	0.02453
532.93	0.02441
533.273	0.02419
533.615	0.02394
533.958	0.02389
534.3	0.02384
534.642	0.02385
534.984	0.02377
535.326	0.02373
535.669	0.02345
536.011	0.02357
536.353	0.02338
536.695	0.02334
537.037	0.02328
537.378	0.02329
537.72	0.02319
538.062	0.02313
538.404	0.02306
538.746	0.02287
539.087	0.02286
539.429	0.02291
539.77	0.02273
540.112	0.02268
540.454	0.02255
540.795	0.02244
541.136	0.02232
541.478	0.02219
541.819	0.02219
542.16	0.0221
542.502	0.02206
542.843	0.02209
543.184	0.02192
543.525	0.02185
543.866	0.02166
544.207	0.02162
544.548	0.02157
544.889	0.02159
545.23	0.02149
545.571	0.02152
545.911	0.02156
546.252	0.02134
546.593	0.02105
546.934	0.02107
547.274	0.02095
547.615	0.02096
547.955	0.02098
548.296	0.02096
548.636	0.02079
548.977	0.02072
549.317	0.02073
549.657	0.02072
549.997	0.02056
550.338	0.02056
550.678	0.02066
551.018	0.02065
551.358	0.02055
551.698	0.0204
552.038	0.02033
552.378	0.02008
552.718	0.01999
553.058	0.01986
553.398	0.01983
553.737	0.02012
554.077	0.01994
554.417	0.02005
554.756	0.02002
555.096	0.0199
555.435	0.01994
555.775	0.02005
556.114	0.01995
556.454	0.01988
556.793	0.0197
557.133	0.01991
557.472	0.01984
557.811	0.0197
558.15	0.01969
558.489	0.01962
558.829	0.01976
559.168	0.01965
559.507	0.01958
559.846	0.01956
560.184	0.01948
560.523	0.0195
560.862	0.01942
561.201	0.01941
561.54	0.01934
561.878	0.01927
562.217	0.01926
562.556	0.01931
562.894	0.01905
563.233	0.0191
563.571	0.01894
563.91	0.01893
564.248	0.01877
564.586	0.01874
564.925	0.01859
565.263	0.0185
565.601	0.01852
565.939	0.01831
566.277	0.01837
566.616	0.01847
566.954	0.01852
567.292	0.01856
567.63	0.0184
567.967	0.01829
568.305	0.01829
568.643	0.01817
568.981	0.0183
569.319	0.01831
569.656	0.01816
569.994	0.01818
570.331	0.01808
570.669	0.01814
571.006	0.01808
571.344	0.01792
571.681	0.01797
572.019	0.01802
572.356	0.01791
572.693	0.01768
573.03	0.01771
573.368	0.01742
573.705	0.01726
574.042	0.01709
574.379	0.01694
574.716	0.01697
575.053	0.01689
575.39	0.01692
575.727	0.01689
576.063	0.01667
576.4	0.01649
576.737	0.01634
577.074	0.01638
577.41	0.01627
577.747	0.01613
578.083	0.01608
578.42	0.01606
578.756	0.01591
579.093	0.01597
579.429	0.01588
579.766	0.01599
580.102	0.01588
580.438	0.01581
580.774	0.01589
581.11	0.01569
581.446	0.0158
581.782	0.01563
582.119	0.0155
582.454	0.01538
582.79	0.01541
583.126	0.01545
583.462	0.01551
583.798	0.01548
584.134	0.01523
584.469	0.01524
584.805	0.01529
585.141	0.01532
585.476	0.01536
585.812	0.01539
586.147	0.01538
586.482	0.01548
586.818	0.01549
587.153	0.01541
587.488	0.01556
587.824	0.01541
588.159	0.01551
588.494	0.01535
588.829	0.01556
589.164	0.01565
589.499	0.01575
589.834	0.0157
590.169	0.01561
590.504	0.01556
590.839	0.01559
591.174	0.0156
591.508	0.01545
591.843	0.01534
592.178	0.01527
592.512	0.01522
592.847	0.01515
593.181	0.01489
593.516	0.01474
593.85	0.01465
594.185	0.01466
594.519	0.01475
594.853	0.01492
595.187	0.01498
595.522	0.01501
595.856	0.01478
596.19	0.0148
596.524	0.01458
596.858	0.01452
597.192	0.01458
597.526	0.01462
597.86	0.01458
598.194	0.01477
598.527	0.01476
