Data from initial mio_Absorbance_05.txt Node
Date: Thu Jan 12 12:16:25 EST 2023
User: UV-vis
Spectrometer: FLMS04918
Trigger mode: 0
Integration Time (sec): 2.340000E-3
Scans to average: 100
Electric dark correction enabled: true
Nonlinearity correction enabled: false
Boxcar width: 10
XAxis mode: Wavelengths
Number of Pixels in Spectrum: 2048
>>>>>Begin Spectral Data<<<<<
179.23	0.63923
179.611	0.32459
179.992	0.62221
180.373	0.40938
180.754	0.16077
181.134	-0.11674
181.515	-0.09626
181.896	-0.00327
182.276	0.19376
182.657	0.05343
183.038	0.03219
183.418	-0.18547
183.799	-0.46073
184.179	0.07316
184.56	0.00081
184.94	-0.01555
185.32	-0.01423
185.701	-0.01828
186.081	-0.01749
186.461	-0.0179
186.842	-0.0174
187.222	-0.01801
187.602	-0.01995
187.982	-0.02013
188.362	-0.01989
188.742	-0.02104
189.122	-0.02153
189.502	-0.02109
189.882	-0.0206
190.262	-0.02003
190.642	-0.02021
191.022	-0.02132
191.402	-0.02197
191.781	-0.02216
192.161	-0.02323
192.541	-0.0234
192.92	-0.02367
193.3	-0.02361
193.68	-0.02338
194.059	-0.0231
194.439	-0.02354
194.818	-0.02445
195.198	-0.02519
195.577	-0.02529
195.957	-0.02516
196.336	-0.02611
196.715	-0.02562
197.094	-0.02588
197.474	-0.02577
197.853	-0.02633
198.232	-0.02697
198.611	-0.0275
198.99	-0.02706
199.369	-0.02725
199.748	-0.02783
200.127	-0.02725
200.506	-0.02721
200.885	-0.02659
201.264	-0.02619
201.643	-0.02598
202.022	-0.02669
202.401	-0.02658
202.779	-0.02593
203.158	-0.02555
203.537	-0.02522
203.915	-0.02529
204.294	-0.02464
204.673	-0.02524
205.051	-0.02564
205.43	-0.02591
205.808	-0.02619
206.187	-0.02607
206.565	-0.02599
206.943	-0.02618
207.322	-0.02646
207.7	-0.02614
208.078	-0.02594
208.456	-0.02581
208.835	-0.02667
209.213	-0.02747
209.591	-0.02781
209.969	-0.02761
210.347	-0.02741
210.725	-0.02738
211.103	-0.0274
211.481	-0.02751
211.859	-0.02748
212.237	-0.02777
212.614	-0.02763
212.992	-0.02793
213.37	-0.02853
213.748	-0.02764
214.125	-0.02728
214.503	-0.0276
214.881	-0.02706
215.258	-0.02607
215.636	-0.02608
216.013	-0.02611
216.391	-0.02634
216.768	-0.02548
217.145	-0.02571
217.523	-0.02584
217.9	-0.0262
218.277	-0.02647
218.655	-0.02598
219.032	-0.02663
219.409	-0.02613
219.786	-0.02638
220.163	-0.02597
220.54	-0.02649
220.917	-0.02584
221.294	-0.02568
221.671	-0.02614
222.048	-0.02638
222.425	-0.02655
222.802	-0.02712
223.179	-0.02758
223.556	-0.0273
223.932	-0.02759
224.309	-0.0281
224.686	-0.02835
225.062	-0.02789
225.439	-0.02772
225.815	-0.02724
226.192	-0.02764
226.568	-0.02769
226.945	-0.02685
227.321	-0.02737
227.698	-0.02736
228.074	-0.02748
228.45	-0.02682
228.827	-0.02674
229.203	-0.02705
229.579	-0.02689
229.955	-0.02674
230.331	-0.02613
230.707	-0.02569
231.083	-0.02532
231.46	-0.02575
231.835	-0.02564
232.211	-0.02504
232.587	-0.02468
232.963	-0.02466
233.339	-0.02476
233.715	-0.02486
234.091	-0.02482
234.466	-0.02467
234.842	-0.02526
235.218	-0.02551
235.593	-0.02537
235.969	-0.02565
236.344	-0.0257
236.72	-0.0257
237.095	-0.02515
237.471	-0.02516
237.846	-0.02503
238.222	-0.02594
238.597	-0.02611
238.972	-0.02655
239.348	-0.02651
239.723	-0.02685
240.098	-0.02641
240.473	-0.02616
240.848	-0.02594
241.223	-0.02628
241.598	-0.02655
241.973	-0.02571
242.348	-0.02518
242.723	-0.02478
243.098	-0.0243
243.473	-0.02405
243.848	-0.02408
244.223	-0.02404
244.597	-0.02439
244.972	-0.02416
245.347	-0.02438
245.721	-0.02481
246.096	-0.024
246.47	-0.02415
246.845	-0.02413
247.219	-0.02408
247.594	-0.02462
247.968	-0.02535
248.343	-0.02581
248.717	-0.0257
249.091	-0.02578
249.466	-0.02596
249.84	-0.02605
250.214	-0.02699
250.588	-0.02705
250.962	-0.02695
251.336	-0.0278
251.71	-0.02819
252.084	-0.02824
252.458	-0.02843
252.832	-0.02898
253.206	-0.02913
253.58	-0.029
253.954	-0.02907
254.328	-0.02902
254.702	-0.02892
255.075	-0.02885
255.449	-0.02822
255.823	-0.02746
256.196	-0.02757
256.57	-0.02799
256.943	-0.0278
257.317	-0.0274
257.69	-0.02791
258.064	-0.02738
258.437	-0.02736
258.81	-0.02763
259.184	-0.02707
259.557	-0.02722
259.93	-0.02713
260.303	-0.02677
260.677	-0.02646
261.05	-0.02622
261.423	-0.02623
261.796	-0.02656
262.169	-0.02646
262.542	-0.02675
262.915	-0.02713
263.288	-0.02702
263.661	-0.02743
264.033	-0.02732
264.406	-0.02713
264.779	-0.02702
265.152	-0.02691
265.524	-0.02705
265.897	-0.02733
266.27	-0.02731
266.642	-0.02721
267.015	-0.02703
267.387	-0.02617
267.76	-0.02651
268.132	-0.02704
268.504	-0.02704
268.877	-0.02723
269.249	-0.02691
269.621	-0.02641
269.994	-0.0267
270.366	-0.02668
270.738	-0.02647
271.11	-0.02653
271.482	-0.02675
271.854	-0.02661
272.226	-0.02675
272.598	-0.02645
272.97	-0.02678
273.342	-0.0267
273.714	-0.02673
274.086	-0.02676
274.458	-0.02642
274.829	-0.0266
275.201	-0.02734
275.573	-0.0271
275.944	-0.02653
276.316	-0.0268
276.688	-0.02663
277.059	-0.02673
277.431	-0.02708
277.802	-0.02695
278.173	-0.02703
278.545	-0.02708
278.916	-0.02691
279.287	-0.02671
279.659	-0.02696
280.03	-0.02663
280.401	-0.02673
280.772	-0.02637
281.143	-0.0263
281.515	-0.02589
281.886	-0.02601
282.257	-0.02618
282.628	-0.02616
282.998	-0.02582
283.369	-0.02579
283.74	-0.02594
284.111	-0.02554
284.482	-0.02536
284.853	-0.0253
285.223	-0.02511
285.594	-0.02489
285.965	-0.02469
286.335	-0.02482
286.706	-0.02481
287.076	-0.02472
287.447	-0.02489
287.817	-0.02518
288.188	-0.02527
288.558	-0.02563
288.928	-0.02589
289.299	-0.02613
289.669	-0.02653
290.039	-0.0269
290.409	-0.02717
290.779	-0.02736
291.149	-0.02765
291.52	-0.02787
291.89	-0.02813
292.26	-0.02835
292.629	-0.02836
292.999	-0.02841
293.369	-0.02846
293.739	-0.02839
294.109	-0.02822
294.479	-0.02811
294.848	-0.02797
295.218	-0.02769
295.588	-0.02739
295.957	-0.02714
296.327	-0.02675
296.696	-0.02633
297.066	-0.02587
297.435	-0.02534
297.805	-0.02469
298.174	-0.02403
298.544	-0.02338
298.913	-0.02269
299.282	-0.02203
299.651	-0.02135
300.021	-0.0207
300.39	-0.02009
300.759	-0.01949
301.128	-0.01891
301.497	-0.01841
301.866	-0.01795
302.235	-0.01749
302.604	-0.01706
302.973	-0.01664
303.342	-0.01619
303.71	-0.01573
304.079	-0.01529
304.448	-0.01486
304.817	-0.01445
305.185	-0.01384
305.554	-0.01305
305.923	-0.01224
306.291	-0.01148
306.66	-0.01076
307.028	-0.01005
307.397	-0.00938
307.765	-0.00871
308.133	-0.00805
308.502	-0.0074
308.87	-0.00674
309.238	-0.00606
309.606	-0.00538
309.975	-0.00469
310.343	-0.004
310.711	-0.00334
311.079	-0.00271
311.447	-0.0021
311.815	-0.00151
312.183	-0.00095
312.551	-0.00042
312.919	-0.00013
313.286	-0.00024
313.654	-0.00059
314.022	-0.00115
314.39	-0.0018
314.757	-0.00252
315.125	-0.00321
315.492	-0.00386
315.86	-0.00424
316.228	-0.00436
316.595	-0.00436
316.962	-0.00436
317.33	-0.00436
317.697	-0.00436
318.065	-0.00436
318.432	-0.00436
318.799	-0.00436
319.166	-0.00436
319.534	-0.00436
319.901	-0.00436
320.268	-0.00435
320.635	-0.00432
321.002	-0.00414
321.369	-0.00378
321.736	-0.00322
322.103	-0.00257
322.47	-0.00185
322.836	-0.00116
323.203	-0.00052
323.57	-0.00014
323.937	-0.00002
324.303	-0.00002
324.67	-0.00002
325.037	-0.00002
325.403	-0.00002
325.77	-0.00002
326.136	-0.00002
326.503	-0.00002
326.869	-0.00002
327.235	-0.00002
327.602	-0.00002
327.968	-0.00002
328.334	-0.00002
328.7	-0.00002
329.067	-0.00002
329.433	-0.00002
329.799	-0.00002
330.165	-0.00002
330.531	-0.00002
330.897	-0.00002
331.263	-0.00002
331.629	-0.00002
331.995	-0.00002
332.36	-0.00002
332.726	-0.00002
333.092	-0.00002
333.458	-0.00002
333.823	-0.00002
334.189	-0.00002
334.554	-0.00002
334.92	-0.00002
335.286	-0.00002
335.651	-0.00002
336.016	-0.00002
336.382	-0.00002
336.747	-0.00002
337.113	-0.00002
337.478	-0.00002
337.843	-0.00002
338.208	-0.00002
338.573	-0.00002
338.939	-0.00002
339.304	-0.00002
339.669	-0.00002
340.034	-0.00002
340.399	-0.00002
340.764	-0.00002
341.129	-0.00002
341.493	-0.00002
341.858	-0.00002
342.223	-0.00002
342.588	-0.00002
342.952	-0.00002
343.317	-0.00002
343.682	-0.00002
344.046	-0.00002
344.411	-0.00002
344.775	-0.00002
345.14	-0.00002
345.504	-0.00002
345.869	-0.00002
346.233	-0.00002
346.597	-0.00002
346.962	-0.00002
347.326	-0.00002
347.69	-0.00002
348.054	-0.00002
348.418	-0.00002
348.782	-0.00002
349.146	-0.00002
349.51	-0.00002
349.874	-0.00002
350.238	-0.00002
350.602	-0.00002
350.966	-0.00002
351.33	-0.00002
351.693	-0.00002
352.057	-0.00002
352.421	-0.00002
352.784	-0.00002
353.148	-0.00002
353.512	-0.00002
353.875	-0.00002
354.239	-0.00002
354.602	-0.00002
354.966	-0.00003
355.329	-0.0001
355.692	-0.0002
356.056	-0.00041
356.419	-0.00065
356.782	-0.00096
357.145	-0.00134
357.508	-0.00174
357.871	-0.00222
358.234	-0.00277
358.597	-0.00338
358.96	-0.00391
359.323	-0.00452
359.686	-0.00511
360.049	-0.00575
360.412	-0.0063
360.775	-0.00683
361.137	-0.00728
361.5	-0.00766
361.863	-0.00802
362.225	-0.00835
362.588	-0.00862
362.951	-0.00878
363.313	-0.00888
363.675	-0.00883
364.038	-0.00888
364.4	-0.00891
364.763	-0.00896
365.125	-0.00911
365.487	-0.00925
365.849	-0.00945
366.212	-0.00966
366.574	-0.01
366.936	-0.01031
367.298	-0.01064
367.66	-0.01086
368.022	-0.01115
368.384	-0.01142
368.746	-0.01174
369.108	-0.01201
369.469	-0.01231
369.831	-0.01255
370.193	-0.01282
370.555	-0.013
370.916	-0.01325
371.278	-0.01344
371.64	-0.01344
372.001	-0.01352
372.363	-0.01349
372.724	-0.01352
373.086	-0.01345
373.447	-0.01327
373.808	-0.01301
374.17	-0.01263
374.531	-0.01218
374.892	-0.01166
375.253	-0.01118
375.615	-0.01075
375.976	-0.01043
376.337	-0.01037
376.698	-0.01053
377.059	-0.01064
377.42	-0.01101
377.781	-0.01149
378.141	-0.01209
378.502	-0.01259
378.863	-0.01319
379.224	-0.01387
379.585	-0.01445
379.945	-0.01504
380.306	-0.01547
380.666	-0.01592
381.027	-0.01636
381.388	-0.01681
381.748	-0.01731
382.108	-0.01785
382.469	-0.01847
382.829	-0.01904
383.19	-0.01951
383.55	-0.01973
383.91	-0.01954
384.27	-0.01905
384.63	-0.0185
384.991	-0.01784
385.351	-0.01715
385.711	-0.01669
386.071	-0.01633
386.431	-0.01591
386.791	-0.01551
387.15	-0.01516
387.51	-0.01476
387.87	-0.01415
388.23	-0.01342
388.589	-0.01249
388.949	-0.01148
389.309	-0.01048
389.668	-0.00963
390.028	-0.00906
390.387	-0.00869
390.747	-0.00869
391.106	-0.009
391.466	-0.00956
391.825	-0.01036
392.184	-0.01125
392.544	-0.01208
392.903	-0.01294
393.262	-0.01354
393.621	-0.01408
393.98	-0.01465
394.339	-0.01513
394.698	-0.01555
395.057	-0.01603
395.416	-0.01676
395.775	-0.01768
396.134	-0.01888
396.493	-0.02024
396.852	-0.02168
397.211	-0.02296
397.569	-0.02407
397.928	-0.025
398.287	-0.02572
398.645	-0.02624
399.004	-0.02671
399.362	-0.02706
399.721	-0.02746
400.079	-0.02782
400.438	-0.02803
400.796	-0.02825
401.154	-0.02841
401.512	-0.0286
401.871	-0.02877
402.229	-0.02903
402.587	-0.02931
402.945	-0.02959
403.303	-0.02987
403.661	-0.0301
404.019	-0.03028
404.377	-0.03024
404.735	-0.03011
405.093	-0.02986
405.451	-0.02964
405.808	-0.02934
406.166	-0.02907
406.524	-0.02882
406.882	-0.02867
407.239	-0.02854
407.597	-0.02841
407.954	-0.02839
408.312	-0.02837
408.669	-0.02839
409.027	-0.02842
409.384	-0.02851
409.741	-0.02852
410.099	-0.02853
410.456	-0.02848
410.813	-0.02848
411.17	-0.02849
411.527	-0.02855
411.884	-0.02875
412.242	-0.02912
412.599	-0.02954
412.956	-0.02994
413.312	-0.03042
413.669	-0.031
414.026	-0.0316
414.383	-0.03222
414.74	-0.0328
415.096	-0.03341
415.453	-0.03406
415.81	-0.03482
416.166	-0.03567
416.523	-0.03658
416.879	-0.0374
417.236	-0.03823
417.592	-0.03896
417.949	-0.03966
418.305	-0.04044
418.661	-0.04126
419.018	-0.04211
419.374	-0.043
419.73	-0.04387
420.086	-0.04479
420.442	-0.04575
420.798	-0.04663
421.154	-0.04742
421.51	-0.04817
421.866	-0.0488
422.222	-0.0495
422.578	-0.05021
422.934	-0.05089
423.29	-0.05149
423.646	-0.05199
424.001	-0.05249
424.357	-0.05318
424.713	-0.05391
425.068	-0.05484
425.424	-0.05584
425.779	-0.05653
426.135	-0.05709
426.49	-0.0574
426.845	-0.05755
427.201	-0.05759
427.556	-0.05757
427.911	-0.05737
428.266	-0.05727
428.622	-0.05715
428.977	-0.05702
429.332	-0.05686
429.687	-0.05658
430.042	-0.05627
430.397	-0.05591
430.752	-0.05566
431.107	-0.05544
431.461	-0.0553
431.816	-0.05517
432.171	-0.05516
432.526	-0.05512
432.88	-0.0552
433.235	-0.0553
433.59	-0.05544
433.944	-0.05567
434.299	-0.05594
434.653	-0.05621
435.008	-0.05641
435.362	-0.0566
435.716	-0.05672
436.071	-0.05683
436.425	-0.05687
436.779	-0.05699
437.133	-0.05711
437.487	-0.05724
437.841	-0.05745
438.195	-0.05758
438.549	-0.05774
438.903	-0.05784
439.257	-0.05789
439.611	-0.05788
439.965	-0.05791
440.319	-0.05788
440.673	-0.05791
441.026	-0.05789
441.38	-0.05783
441.734	-0.05773
442.087	-0.05764
442.441	-0.05749
442.794	-0.05741
443.148	-0.05728
443.501	-0.0571
443.855	-0.05701
444.208	-0.05689
444.561	-0.05684
444.915	-0.05672
445.268	-0.05667
445.621	-0.05662
445.974	-0.05661
446.327	-0.05661
446.68	-0.05661
447.033	-0.05663
447.386	-0.05665
447.739	-0.0567
448.092	-0.05668
448.445	-0.05673
448.798	-0.05679
449.15	-0.05686
449.503	-0.05689
449.856	-0.05701
450.209	-0.05706
450.561	-0.05716
450.914	-0.05729
451.266	-0.05732
451.619	-0.05745
451.971	-0.05759
452.323	-0.05777
452.676	-0.05787
453.028	-0.05797
453.38	-0.05808
453.733	-0.05815
454.085	-0.05823
454.437	-0.05829
454.789	-0.0584
455.141	-0.05849
455.493	-0.05853
455.845	-0.05864
456.197	-0.05871
456.549	-0.05877
456.901	-0.05885
457.253	-0.05896
457.604	-0.05904
457.956	-0.05909
458.308	-0.05911
458.659	-0.05924
459.011	-0.05925
459.362	-0.05926
459.714	-0.05924
460.065	-0.0593
460.417	-0.05931
460.768	-0.0593
461.12	-0.05942
461.471	-0.05945
461.822	-0.05951
462.173	-0.05956
462.525	-0.05962
462.876	-0.05968
463.227	-0.05967
463.578	-0.05966
463.929	-0.0597
464.28	-0.05974
464.631	-0.05971
464.982	-0.05973
465.332	-0.05975
465.683	-0.05981
466.034	-0.05979
466.385	-0.05986
466.735	-0.05986
467.086	-0.05996
467.437	-0.05995
467.787	-0.06
468.138	-0.06005
468.488	-0.06006
468.839	-0.0601
469.189	-0.06016
469.539	-0.06015
469.89	-0.06013
470.24	-0.06019
470.59	-0.06022
470.94	-0.06027
471.29	-0.06032
471.64	-0.06041
471.99	-0.06047
472.34	-0.06055
472.69	-0.06062
473.04	-0.06065
473.39	-0.06069
473.74	-0.06075
474.09	-0.06085
474.439	-0.06079
474.789	-0.06085
475.139	-0.06094
475.488	-0.06102
475.838	-0.06104
476.188	-0.0611
476.537	-0.06112
476.886	-0.06122
477.236	-0.06129
477.585	-0.06132
477.935	-0.06142
478.284	-0.06148
478.633	-0.06156
478.982	-0.06157
479.331	-0.06163
479.68	-0.06162
480.03	-0.06163
480.379	-0.06162
480.728	-0.06167
481.076	-0.06167
481.425	-0.06169
481.774	-0.06174
482.123	-0.06175
482.472	-0.06173
482.821	-0.06176
483.169	-0.06178
483.518	-0.06184
483.866	-0.06191
484.215	-0.06188
484.563	-0.06191
484.912	-0.06196
485.26	-0.062
485.609	-0.06206
485.957	-0.06211
486.305	-0.06217
486.654	-0.06215
487.002	-0.06219
487.35	-0.06225
487.698	-0.06235
488.046	-0.06242
488.394	-0.06247
488.742	-0.06254
489.09	-0.06264
489.438	-0.0627
489.786	-0.06277
490.134	-0.06285
490.482	-0.06292
490.829	-0.06296
491.177	-0.06297
491.525	-0.06306
491.872	-0.06309
492.22	-0.06317
492.567	-0.06314
492.915	-0.06315
493.262	-0.0632
493.61	-0.06325
493.957	-0.06334
494.304	-0.06338
494.652	-0.06341
494.999	-0.06347
495.346	-0.06348
495.693	-0.06353
496.04	-0.06355
496.387	-0.06357
496.734	-0.06362
497.081	-0.06363
497.428	-0.0636
497.775	-0.06361
498.122	-0.06365
498.469	-0.06368
498.816	-0.06372
499.162	-0.06377
499.509	-0.06377
499.856	-0.06385
500.202	-0.06387
500.549	-0.06382
500.895	-0.0638
501.242	-0.06383
501.588	-0.06385
501.935	-0.06388
502.281	-0.06389
502.627	-0.0639
502.973	-0.06394
503.32	-0.06394
503.666	-0.06395
504.012	-0.06399
504.358	-0.06402
504.704	-0.064
505.05	-0.064
505.396	-0.06399
505.742	-0.06402
506.088	-0.06405
506.433	-0.06409
506.779	-0.06412
507.125	-0.06412
507.471	-0.06413
507.816	-0.06417
508.162	-0.06425
508.507	-0.06423
508.853	-0.06425
509.198	-0.06431
509.544	-0.06435
509.889	-0.06439
510.234	-0.06438
510.58	-0.0644
510.925	-0.06444
511.27	-0.06443
511.615	-0.06444
511.96	-0.06449
512.306	-0.06452
512.651	-0.06455
512.996	-0.06453
513.341	-0.06452
513.685	-0.06452
514.03	-0.06451
514.375	-0.06456
514.72	-0.06456
515.065	-0.06461
515.409	-0.06463
515.754	-0.06466
516.099	-0.06466
516.443	-0.06466
516.788	-0.06464
517.132	-0.06467
517.476	-0.06469
517.821	-0.06473
518.165	-0.06475
518.51	-0.06481
518.854	-0.06481
519.198	-0.06483
519.542	-0.06486
519.886	-0.06488
520.23	-0.06495
520.574	-0.06498
520.918	-0.065
521.262	-0.06505
521.606	-0.06508
521.95	-0.06515
522.294	-0.06514
522.638	-0.06514
522.981	-0.06517
523.325	-0.06517
523.669	-0.06519
524.012	-0.06523
524.356	-0.06525
524.699	-0.0653
525.043	-0.06532
525.386	-0.06533
525.73	-0.06532
526.073	-0.06543
526.416	-0.06548
526.76	-0.06555
527.103	-0.06561
527.446	-0.06564
527.789	-0.06567
528.132	-0.06569
528.475	-0.06568
528.818	-0.06567
529.161	-0.06569
529.504	-0.06574
529.847	-0.06578
530.19	-0.06582
530.532	-0.0659
530.875	-0.06593
531.218	-0.06594
531.56	-0.06598
531.903	-0.06601
532.246	-0.06605
532.588	-0.0661
532.93	-0.06616
533.273	-0.06615
533.615	-0.06622
533.958	-0.06623
534.3	-0.06622
534.642	-0.06626
534.984	-0.06632
535.326	-0.06637
535.669	-0.0664
536.011	-0.06646
536.353	-0.06648
536.695	-0.06653
537.037	-0.06653
537.378	-0.06655
537.72	-0.06657
538.062	-0.06661
538.404	-0.06666
538.746	-0.06668
539.087	-0.06672
539.429	-0.06674
539.77	-0.06677
540.112	-0.0668
540.454	-0.06685
540.795	-0.06685
541.136	-0.06683
541.478	-0.06686
541.819	-0.06689
542.16	-0.06693
542.502	-0.06694
542.843	-0.06702
543.184	-0.06707
543.525	-0.06711
543.866	-0.06713
544.207	-0.06719
544.548	-0.06719
544.889	-0.06721
545.23	-0.06724
545.571	-0.06725
545.911	-0.06731
546.252	-0.0673
546.593	-0.06733
546.934	-0.06737
547.274	-0.06737
547.615	-0.06738
547.955	-0.06741
548.296	-0.06748
548.636	-0.06752
548.977	-0.06752
549.317	-0.06755
549.657	-0.06758
549.997	-0.06757
550.338	-0.06757
550.678	-0.06758
551.018	-0.06757
551.358	-0.06761
551.698	-0.06769
552.038	-0.06774
552.378	-0.06777
552.718	-0.06777
553.058	-0.06773
553.398	-0.06775
553.737	-0.0678
554.077	-0.0678
554.417	-0.06781
554.756	-0.0678
555.096	-0.06781
555.435	-0.06779
555.775	-0.0678
556.114	-0.06781
556.454	-0.06779
556.793	-0.06777
557.133	-0.06776
557.472	-0.06773
557.811	-0.06771
558.15	-0.06773
558.489	-0.06774
558.829	-0.06771
559.168	-0.0677
559.507	-0.06769
559.846	-0.06769
560.184	-0.06769
560.523	-0.06769
560.862	-0.06765
561.201	-0.06764
561.54	-0.06766
561.878	-0.06764
562.217	-0.06761
562.556	-0.06759
562.894	-0.06756
563.233	-0.06751
563.571	-0.06749
563.91	-0.06746
564.248	-0.06745
564.586	-0.06742
564.925	-0.06744
565.263	-0.06743
565.601	-0.0674
565.939	-0.06742
566.277	-0.06744
566.616	-0.06743
566.954	-0.06743
567.292	-0.06743
567.63	-0.06745
567.967	-0.06745
568.305	-0.06742
568.643	-0.06742
568.981	-0.06745
569.319	-0.06744
569.656	-0.06743
569.994	-0.06742
570.331	-0.06745
570.669	-0.06744
571.006	-0.06748
571.344	-0.06751
571.681	-0.0675
572.019	-0.06748
572.356	-0.06743
572.693	-0.06738
573.03	-0.06735
573.368	-0.06727
573.705	-0.06727
574.042	-0.06727
574.379	-0.06726
574.716	-0.06725
575.053	-0.06724
575.39	-0.06726
575.727	-0.06724
576.063	-0.06721
