Data from AgNp lasered 24hrs ago_Absorbance_11-46-58-225.txt Node
Date: Fri Jan 27 11:46:58 EST 2023
User: UV-vis
Spectrometer: FLMS04918
Trigger mode: 0
Integration Time (sec): 3.310000E-3
Scans to average: 10
Electric dark correction enabled: true
Nonlinearity correction enabled: false
Boxcar width: 10
XAxis mode: Wavelengths
Number of Pixels in Spectrum: 2048
>>>>>Begin Spectral Data<<<<<
179.23	-0.06338
179.611	-0.26915
179.992	-0
180.373	-1.26539
180.754	-0.79091
181.134	-0
181.515	-0.46231
181.896	-0.14599
182.276	-0.19107
182.657	-0.132
183.038	-0.01256
183.418	-0
183.799	-0
184.179	0.10249
184.56	0.25772
184.94	0.26494
185.32	0.27059
185.701	0.28026
186.081	0.28493
186.461	0.28018
186.842	0.27869
187.222	0.28628
187.602	0.28105
187.982	0.27646
188.362	0.27836
188.742	0.28089
189.122	0.28309
189.502	0.28028
189.882	0.27873
190.262	0.27688
190.642	0.27484
191.022	0.27377
191.402	0.27529
191.781	0.27502
192.161	0.27729
192.541	0.27734
192.92	0.27718
193.3	0.2762
193.68	0.27498
194.059	0.2747
194.439	0.2781
194.818	0.28012
195.198	0.27986
195.577	0.28114
195.957	0.28242
196.336	0.28272
196.715	0.2845
197.094	0.28327
197.474	0.28609
197.853	0.28714
198.232	0.28999
198.611	0.29215
198.99	0.29297
199.369	0.29199
199.748	0.29368
200.127	0.29169
200.506	0.29078
200.885	0.29143
201.264	0.29338
201.643	0.29302
202.022	0.29426
202.401	0.29367
202.779	0.29391
203.158	0.29339
203.537	0.2948
203.915	0.29495
204.294	0.29571
204.673	0.29432
205.051	0.29427
205.43	0.29496
205.808	0.29524
206.187	0.29587
206.565	0.29628
206.943	0.29809
207.322	0.29882
207.7	0.3006
208.078	0.30256
208.456	0.30529
208.835	0.30469
209.213	0.30369
209.591	0.306
209.969	0.30474
210.347	0.30549
210.725	0.30625
211.103	0.30649
211.481	0.30533
211.859	0.30729
212.237	0.30781
212.614	0.30784
212.992	0.30974
213.37	0.30825
213.748	0.30822
214.125	0.30751
214.503	0.30798
214.881	0.30484
215.258	0.30557
215.636	0.30536
216.013	0.30501
216.391	0.30452
216.768	0.30675
217.145	0.3075
217.523	0.30706
217.9	0.30839
218.277	0.30825
218.655	0.30776
219.032	0.30791
219.409	0.30963
219.786	0.30985
220.163	0.30934
220.54	0.31329
220.917	0.31175
221.294	0.31188
221.671	0.31158
222.048	0.31286
222.425	0.3128
222.802	0.31673
223.179	0.31762
223.556	0.31717
223.932	0.31793
224.309	0.31932
224.686	0.31952
225.062	0.3207
225.439	0.32033
225.815	0.32
226.192	0.31971
226.568	0.32005
226.945	0.32246
227.321	0.32304
227.698	0.32409
228.074	0.32364
228.45	0.32044
228.827	0.32222
229.203	0.32315
229.579	0.32449
229.955	0.32373
230.331	0.32302
230.707	0.32268
231.083	0.32216
231.46	0.32251
231.835	0.32276
232.211	0.32155
232.587	0.32268
232.963	0.32313
233.339	0.3246
233.715	0.32505
234.091	0.32628
234.466	0.32842
234.842	0.32838
235.218	0.32891
235.593	0.32769
235.969	0.3275
236.344	0.32807
236.72	0.32812
237.095	0.3294
237.471	0.33068
237.846	0.33232
238.222	0.3322
238.597	0.33274
238.972	0.33354
239.348	0.33379
239.723	0.33526
240.098	0.33736
240.473	0.33637
240.848	0.33755
241.223	0.33747
241.598	0.33797
241.973	0.33974
242.348	0.33875
242.723	0.33936
243.098	0.34137
243.473	0.3448
243.848	0.34791
244.223	0.34955
244.597	0.35076
244.972	0.35065
245.347	0.3524
245.721	0.35411
246.096	0.35934
246.47	0.36259
246.845	0.36471
247.219	0.36742
247.594	0.37173
247.968	0.37225
248.343	0.37444
248.717	0.37361
249.091	0.37775
249.466	0.38054
249.84	0.38112
250.214	0.38412
250.588	0.38516
250.962	0.38528
251.336	0.38517
251.71	0.3865
252.084	0.38863
252.458	0.39224
252.832	0.39544
253.206	0.39823
253.58	0.40011
253.954	0.39899
254.328	0.39884
254.702	0.40077
255.075	0.4011
255.449	0.40174
255.823	0.40345
256.196	0.4065
256.57	0.41049
256.943	0.41046
257.317	0.41233
257.69	0.41415
258.064	0.41288
258.437	0.41533
258.81	0.41705
259.184	0.41839
259.557	0.42126
259.93	0.42427
260.303	0.42552
260.677	0.42715
261.05	0.42736
261.423	0.43031
261.796	0.43429
262.169	0.43832
262.542	0.43957
262.915	0.44194
263.288	0.4427
263.661	0.44599
264.033	0.44719
264.406	0.44926
264.779	0.45205
265.152	0.45632
265.524	0.45801
265.897	0.46221
266.27	0.46501
266.642	0.46724
267.015	0.47114
267.387	0.47272
267.76	0.47516
268.132	0.47811
268.504	0.48103
268.877	0.48418
269.249	0.48647
269.621	0.48894
269.994	0.49173
270.366	0.49643
270.738	0.50078
271.11	0.50477
271.482	0.50805
271.854	0.51246
272.226	0.5161
272.598	0.51958
272.97	0.52153
273.342	0.52535
273.714	0.53073
274.086	0.5363
274.458	0.54252
274.829	0.54707
275.201	0.55217
275.573	0.55622
275.944	0.55994
276.316	0.56685
276.688	0.57326
277.059	0.58032
277.431	0.58967
277.802	0.60145
278.173	0.61819
278.545	0.64532
278.916	0.68205
279.287	0.73227
279.659	0.79581
280.03	0.86496
280.401	0.93515
280.772	1.0001
281.143	1.05829
281.515	1.10712
281.886	1.14495
282.257	1.17319
282.628	1.19221
282.998	1.20417
283.369	1.20919
283.74	1.2096
284.111	1.20686
284.482	1.20073
284.853	1.19315
285.223	1.18452
285.594	1.17493
285.965	1.16577
286.335	1.15558
286.706	1.14462
287.076	1.1333
287.447	1.12161
287.817	1.10926
288.188	1.09593
288.558	1.08249
288.928	1.06769
289.299	1.05151
289.669	1.03487
290.039	1.01761
290.409	1.00066
290.779	0.98434
291.149	0.96852
291.52	0.95432
291.89	0.94076
292.26	0.9284
292.629	0.91673
292.999	0.90583
293.369	0.89568
293.739	0.88614
294.109	0.87719
294.479	0.86893
294.848	0.86116
295.218	0.85332
295.588	0.84551
295.957	0.838
296.327	0.83026
296.696	0.8224
297.066	0.81458
297.435	0.80672
297.805	0.79868
298.174	0.79057
298.544	0.78212
298.913	0.77387
299.282	0.76549
299.651	0.75724
300.021	0.74907
300.39	0.74113
300.759	0.73363
301.128	0.72648
301.497	0.71967
301.866	0.7133
302.235	0.70721
302.604	0.7013
302.973	0.69565
303.342	0.69004
303.71	0.68396
304.079	0.67768
304.448	0.6713
304.817	0.66473
305.185	0.65786
305.554	0.65092
305.923	0.64372
306.291	0.63642
306.66	0.62937
307.028	0.62259
307.397	0.61542
307.765	0.60859
308.133	0.6016
308.502	0.59481
308.87	0.58755
309.238	0.5803
309.606	0.57332
309.975	0.56632
310.343	0.55954
310.711	0.55317
311.079	0.54717
311.447	0.54159
311.815	0.53667
312.183	0.53254
312.551	0.52911
312.919	0.52631
313.286	0.52447
313.654	0.5235
314.022	0.52341
314.39	0.52361
314.757	0.52358
315.125	0.52379
315.492	0.52369
315.86	0.52333
316.228	0.52209
316.595	0.52089
316.962	0.5188
317.33	0.51603
317.697	0.51291
318.065	0.50923
318.432	0.50464
318.799	0.49993
319.166	0.4949
319.534	0.48955
319.901	0.48442
320.268	0.47998
320.635	0.47576
321.002	0.47126
321.369	0.46647
321.736	0.4612
322.103	0.45583
322.47	0.45029
322.836	0.44501
323.203	0.43961
323.57	0.43438
323.937	0.42953
324.303	0.4247
324.67	0.42035
325.037	0.41595
325.403	0.41195
325.77	0.40809
326.136	0.4047
326.503	0.40125
326.869	0.39822
327.235	0.39529
327.602	0.39201
327.968	0.38827
328.334	0.38427
328.7	0.38014
329.067	0.37608
329.433	0.37209
329.799	0.36798
330.165	0.36429
330.531	0.36077
330.897	0.35749
331.263	0.35474
331.629	0.35199
331.995	0.34957
332.36	0.34757
332.726	0.34575
333.092	0.34404
333.458	0.34264
333.823	0.34103
334.189	0.33979
334.554	0.33833
334.92	0.337
335.286	0.33592
335.651	0.33477
336.016	0.33361
336.382	0.33256
336.747	0.33132
337.113	0.33004
337.478	0.32874
337.843	0.32741
338.208	0.32604
338.573	0.32477
338.939	0.32354
339.304	0.32252
339.669	0.32143
340.034	0.31998
340.399	0.31913
340.764	0.31796
341.129	0.31689
341.493	0.31612
341.858	0.31512
342.223	0.31465
342.588	0.31408
342.952	0.31341
343.317	0.31264
343.682	0.31177
344.046	0.31087
344.411	0.31031
344.775	0.30967
345.14	0.30905
345.504	0.30847
345.869	0.30759
346.233	0.30662
346.597	0.30514
346.962	0.30365
347.326	0.30207
347.69	0.30049
348.054	0.29821
348.418	0.29605
348.782	0.29358
349.146	0.29111
349.51	0.28862
349.874	0.28594
350.238	0.28342
350.602	0.28091
350.966	0.27845
351.33	0.27614
351.693	0.27373
352.057	0.27115
352.421	0.26892
352.784	0.26708
353.148	0.26501
353.512	0.26333
353.875	0.26157
354.239	0.2602
354.602	0.25887
354.966	0.25771
355.329	0.25689
355.692	0.25635
356.056	0.25604
356.419	0.25596
356.782	0.25599
357.145	0.25627
357.508	0.2565
357.871	0.25674
358.234	0.25714
358.597	0.25764
358.96	0.25793
359.323	0.25849
359.686	0.25899
360.049	0.25953
360.412	0.25955
360.775	0.25967
361.137	0.25938
361.5	0.25911
361.863	0.25859
362.225	0.25795
362.588	0.25714
362.951	0.256
363.313	0.25479
363.675	0.25335
364.038	0.25215
364.4	0.2509
364.763	0.24974
365.125	0.24873
365.487	0.24785
365.849	0.2471
366.212	0.24627
366.574	0.24594
366.936	0.24561
367.298	0.24552
367.66	0.2449
368.022	0.24448
368.384	0.24409
368.746	0.24387
369.108	0.24352
369.469	0.24334
369.831	0.24299
370.193	0.24268
370.555	0.24222
370.916	0.24195
371.278	0.24151
371.64	0.24077
372.001	0.24029
372.363	0.23945
372.724	0.2389
373.086	0.23805
373.447	0.23713
373.808	0.23608
374.17	0.23472
374.531	0.23316
374.892	0.23128
375.253	0.22979
375.615	0.2285
375.976	0.2274
376.337	0.22681
376.698	0.22676
377.059	0.22664
377.42	0.22711
377.781	0.22807
378.141	0.22949
378.502	0.23034
378.863	0.23146
379.224	0.23297
379.585	0.23418
379.945	0.23545
380.306	0.23661
380.666	0.2378
381.027	0.23887
381.388	0.23999
381.748	0.24121
382.108	0.24225
382.469	0.24354
382.829	0.24459
383.19	0.24532
383.55	0.24551
383.91	0.24485
384.27	0.24348
384.63	0.24191
384.991	0.24015
385.351	0.23797
385.711	0.23608
386.071	0.2348
386.431	0.23331
386.791	0.23153
387.15	0.22991
387.51	0.22831
387.87	0.22603
388.23	0.22344
388.589	0.22026
388.949	0.21665
389.309	0.21342
389.668	0.21075
390.028	0.20863
390.387	0.20695
390.747	0.20603
391.106	0.20575
391.466	0.20629
391.825	0.2077
392.184	0.20939
392.544	0.21103
392.903	0.21314
393.262	0.21438
393.621	0.21553
393.98	0.21644
394.339	0.21711
394.698	0.21749
395.057	0.21812
395.416	0.21976
395.775	0.22223
396.134	0.22576
396.493	0.23021
396.852	0.23491
397.211	0.23925
397.569	0.24358
397.928	0.24776
398.287	0.25177
398.645	0.25536
399.004	0.25874
399.362	0.26141
399.721	0.26425
400.079	0.26664
400.438	0.26824
400.796	0.26996
401.154	0.27128
401.512	0.27295
401.871	0.27439
402.229	0.27648
402.587	0.27854
402.945	0.28046
403.303	0.28217
403.661	0.28339
404.019	0.28423
404.377	0.28389
404.735	0.28284
405.093	0.28093
405.451	0.2792
405.808	0.2769
406.166	0.27469
406.524	0.27234
406.882	0.27048
407.239	0.26841
407.597	0.26664
407.954	0.26511
408.312	0.26359
408.669	0.26229
409.027	0.26071
409.384	0.25971
409.741	0.25824
410.099	0.25668
410.456	0.25442
410.813	0.25245
411.17	0.25049
411.527	0.24896
411.884	0.24789
412.242	0.24786
412.599	0.24802
412.956	0.24797
413.312	0.24855
413.669	0.24953
414.026	0.25056
414.383	0.25157
414.74	0.25272
415.096	0.25385
415.453	0.25532
415.81	0.25742
416.166	0.26002
416.523	0.26297
416.879	0.26545
417.236	0.26786
417.592	0.26996
417.949	0.27221
418.305	0.27478
418.661	0.27754
419.018	0.28046
419.374	0.28379
419.73	0.2872
420.086	0.29095
420.442	0.29503
420.798	0.29876
421.154	0.30228
421.51	0.30557
421.866	0.30882
422.222	0.31196
422.578	0.31534
422.934	0.31845
423.29	0.32119
423.646	0.32376
424.001	0.32658
424.357	0.32998
424.713	0.33386
425.068	0.33851
425.424	0.34362
425.779	0.34757
426.135	0.35133
426.49	0.35408
426.845	0.35639
427.201	0.35808
427.556	0.3593
427.911	0.3598
428.266	0.36008
428.622	0.36004
428.977	0.3599
429.332	0.35941
429.687	0.35894
430.042	0.35809
430.397	0.35728
430.752	0.35686
431.107	0.35615
431.461	0.3554
431.816	0.35475
432.171	0.35413
432.526	0.35351
432.88	0.35282
433.235	0.35219
433.59	0.3517
433.944	0.35122
434.299	0.35073
434.653	0.35034
435.008	0.34999
435.362	0.34963
435.716	0.34916
436.071	0.34864
436.425	0.34827
436.779	0.34787
437.133	0.34732
437.487	0.34706
437.841	0.34673
438.195	0.3463
438.549	0.34595
438.903	0.34568
439.257	0.34526
439.611	0.34491
439.965	0.3445
440.319	0.34412
440.673	0.3438
441.026	0.34326
441.38	0.34297
441.734	0.3424
442.087	0.34188
442.441	0.34137
442.794	0.34086
443.148	0.34031
443.501	0.34003
443.855	0.33943
444.208	0.33895
444.561	0.33854
444.915	0.33823
445.268	0.3378
445.621	0.33737
445.974	0.33686
446.327	0.33621
446.68	0.33594
447.033	0.33542
447.386	0.3351
447.739	0.33453
448.092	0.33395
448.445	0.3335
448.798	0.33315
449.15	0.33273
449.503	0.33227
449.856	0.33166
450.209	0.3312
450.561	0.3307
450.914	0.33039
451.266	0.33015
451.619	0.32986
451.971	0.32943
452.323	0.32887
452.676	0.32853
453.028	0.32819
453.38	0.3279
453.733	0.3276
454.085	0.32719
454.437	0.3267
454.789	0.32616
455.141	0.32594
455.493	0.32578
455.845	0.32553
456.197	0.32524
456.549	0.32501
456.901	0.32477
457.253	0.32462
457.604	0.32434
457.956	0.32421
458.308	0.3238
458.659	0.32365
459.011	0.32337
459.362	0.32313
459.714	0.32297
460.065	0.32277
460.417	0.32244
460.768	0.32213
461.12	0.32209
461.471	0.32189
461.822	0.32173
462.173	0.32162
462.525	0.32147
462.876	0.32122
463.227	0.32103
463.578	0.32073
463.929	0.32062
464.28	0.32041
464.631	0.32024
464.982	0.32017
465.332	0.31991
465.683	0.31983
466.034	0.31959
466.385	0.31946
466.735	0.31946
467.086	0.31927
467.437	0.319
467.787	0.31893
468.138	0.31907
468.488	0.3188
468.839	0.31865
469.189	0.31863
469.539	0.31849
469.89	0.3183
470.24	0.31833
470.59	0.31837
470.94	0.31852
471.29	0.31849
471.64	0.31861
471.99	0.31864
472.34	0.3186
472.69	0.3186
473.04	0.31837
473.39	0.3184
473.74	0.31839
474.09	0.31839
474.439	0.31847
474.789	0.31854
475.139	0.31871
475.488	0.31863
475.838	0.31882
476.188	0.31906
476.537	0.31928
476.886	0.31952
477.236	0.31978
477.585	0.31998
477.935	0.32009
478.284	0.32017
478.633	0.32024
478.982	0.32032
479.331	0.32049
479.68	0.32065
480.03	0.32097
480.379	0.32125
480.728	0.32138
481.076	0.3216
481.425	0.3215
481.774	0.32156
482.123	0.32158
482.472	0.32165
482.821	0.32169
483.169	0.32146
483.518	0.32149
483.866	0.32139
484.215	0.3212
484.563	0.32121
484.912	0.32099
485.26	0.32082
485.609	0.32073
485.957	0.32066
486.305	0.32051
486.654	0.32037
487.002	0.32013
487.35	0.31983
487.698	0.31961
488.046	0.3193
488.394	0.31901
488.742	0.31891
489.09	0.31868
489.438	0.31853
489.786	0.31813
490.134	0.31787
490.482	0.31773
490.829	0.31729
491.177	0.31712
491.525	0.31689
491.872	0.31639
492.22	0.31602
492.567	0.31577
492.915	0.31535
493.262	0.315
493.61	0.31456
493.957	0.31404
494.304	0.31365
494.652	0.31324
494.999	0.31295
495.346	0.31257
495.693	0.31218
496.04	0.31178
496.387	0.3114
496.734	0.311
497.081	0.31064
497.428	0.31016
497.775	0.30976
498.122	0.30938
498.469	0.30878
498.816	0.30828
499.162	0.30788
499.509	0.3075
499.856	0.30699
500.202	0.30662
500.549	0.30629
500.895	0.30583
501.242	0.30553
501.588	0.30522
501.935	0.30474
502.281	0.30426
502.627	0.3039
502.973	0.3035
503.32	0.30315
503.666	0.3027
504.012	0.30229
504.358	0.3019
504.704	0.30166
505.05	0.30132
505.396	0.30093
505.742	0.30063
506.088	0.30027
506.433	0.29994
506.779	0.29968
507.125	0.29939
507.471	0.29891
507.816	0.29842
508.162	0.29819
508.507	0.29798
508.853	0.29754
509.198	0.29726
509.544	0.29702
509.889	0.29678
510.234	0.29642
510.58	0.29596
510.925	0.29557
511.27	0.29518
511.615	0.29492
511.96	0.29432
512.306	0.29391
512.651	0.29363
512.996	0.29323
513.341	0.29285
513.685	0.29241
514.03	0.29193
514.375	0.29144
514.72	0.29107
515.065	0.29067
515.409	0.29009
515.754	0.28947
516.099	0.2891
516.443	0.28857
516.788	0.28802
517.132	0.28738
517.476	0.28693
517.821	0.28644
518.165	0.28592
518.51	0.28542
518.854	0.28485
519.198	0.28442
519.542	0.28396
519.886	0.28333
520.23	0.28286
520.574	0.28231
520.918	0.28181
521.262	0.28118
521.606	0.28072
521.95	0.28007
522.294	0.27956
522.638	0.27907
522.981	0.27851
523.325	0.27795
523.669	0.27749
524.012	0.27697
524.356	0.27646
524.699	0.27589
525.043	0.27538
525.386	0.27485
525.73	0.27436
526.073	0.27385
526.416	0.27333
526.76	0.2728
527.103	0.27227
527.446	0.27174
527.789	0.27123
528.132	0.27072
528.475	0.27032
528.818	0.26978
529.161	0.26942
529.504	0.26895
529.847	0.26866
530.19	0.26818
530.532	0.26771
530.875	0.26724
531.218	0.26683
531.56	0.26642
531.903	0.266
532.246	0.26562
532.588	0.26533
532.93	0.26488
533.273	0.26449
533.615	0.26407
533.958	0.26366
534.3	0.26328
534.642	0.26298
534.984	0.2627
535.326	0.26234
535.669	0.26201
536.011	0.26166
536.353	0.26125
536.695	0.26084
537.037	0.26029
537.378	0.25994
537.72	0.25966
538.062	0.25937
538.404	0.25902
538.746	0.25864
539.087	0.25828
539.429	0.25791
539.77	0.25748
540.112	0.25713
540.454	0.25662
540.795	0.25628
541.136	0.25588
541.478	0.25559
541.819	0.2551
542.16	0.25459
542.502	0.25407
542.843	0.2535
543.184	0.25302
543.525	0.25251
543.866	0.25206
544.207	0.25158
544.548	0.25112
544.889	0.25047
545.23	0.2499
545.571	0.24918
545.911	0.24863
546.252	0.24811
546.593	0.24751
546.934	0.24693
547.274	0.24628
547.615	0.24572
547.955	0.24511
548.296	0.24444
548.636	0.24375
548.977	0.24301
549.317	0.24235
549.657	0.24169
549.997	0.24112
550.338	0.24042
550.678	0.2398
551.018	0.23904
551.358	0.23844
551.698	0.23768
552.038	0.23693
552.378	0.23614
552.718	0.23546
553.058	0.23465
553.398	0.23378
553.737	0.23298
554.077	0.23211
554.417	0.23133
554.756	0.23039
555.096	0.22948
555.435	0.22853
555.775	0.22759
556.114	0.22674
556.454	0.22576
556.793	0.22478
557.133	0.22382
557.472	0.22281
557.811	0.22186
558.15	0.22092
558.489	0.21985
558.829	0.21882
559.168	0.21779
559.507	0.21664
559.846	0.21548
560.184	0.21443
560.523	0.21327
560.862	0.21221
561.201	0.21108
561.54	0.21
561.878	0.20904
562.217	0.20793
562.556	0.20678
562.894	0.20562
563.233	0.20447
563.571	0.20329
563.91	0.20216
564.248	0.20092
564.586	0.19983
564.925	0.19858
565.263	0.19738
565.601	0.19614
565.939	0.195
566.277	0.19384
566.616	0.19275
566.954	0.19167
567.292	0.19046
567.63	0.18935
567.967	0.1881
568.305	0.18692
568.643	0.18574
568.981	0.18461
569.319	0.18341
569.656	0.18232
569.994	0.18111
570.331	0.17993
570.669	0.17888
571.006	0.17777
571.344	0.17666
571.681	0.17558
572.019	0.17454
572.356	0.17348
572.693	0.17251
573.03	0.17146
573.368	0.17039
573.705	0.16933
574.042	0.16832
574.379	0.16731
574.716	0.16625
575.053	0.1652
575.39	0.16431
575.727	0.16335
576.063	0.16236
576.4	0.16143
576.737	0.16054
577.074	0.15975
577.41	0.1589
577.747	0.15796
578.083	0.15704
578.42	0.15619
578.756	0.15535
579.093	0.15453
579.429	0.15373
579.766	0.15288
580.102	0.15201
580.438	0.1513
580.774	0.15059
581.11	0.14995
581.446	0.14925
581.782	0.14865
582.119	0.14809
582.454	0.14741
582.79	0.14673
583.126	0.14606
583.462	0.14556
583.798	0.14493
584.134	0.1443
584.469	0.14374
584.805	0.14324
585.141	0.14283
585.476	0.14246
585.812	0.14192
586.147	0.14136
586.482	0.1409
586.818	0.14042
587.153	0.14004
587.488	0.13951
587.824	0.13907
588.159	0.13848
588.494	0.13808
588.829	0.13757
589.164	0.13709
589.499	0.13658
589.834	0.13615
590.169	0.13569
590.504	0.1352
590.839	0.1348
591.174	0.13435
591.508	0.13386
591.843	0.13347
592.178	0.13297
592.512	0.13234
592.847	0.13189
593.181	0.13152
593.516	0.13104
593.85	0.13074
594.185	0.13024
594.519	0.12987
594.853	0.12947
595.187	0.12908
595.522	0.1286
595.856	0.12816
596.19	0.12779
596.524	0.12742
596.858	0.127
597.192	0.12655
597.526	0.1261
597.86	0.12565
598.194	0.12528
