Data from AgNPs_7daysfridge_preLase_Absorbance_12-06-06-954.txt Node
Date: Thu Jan 26 12:06:06 EST 2023
User: UV-vis
Spectrometer: FLMS04918
Trigger mode: 0
Integration Time (sec): 3.640000E-3
Scans to average: 10
Electric dark correction enabled: true
Nonlinearity correction enabled: false
Boxcar width: 10
XAxis mode: Wavelengths
Number of Pixels in Spectrum: 2048
>>>>>Begin Spectral Data<<<<<
179.23	-0.07966
179.611	-0.23593
179.992	-0.14272
180.373	-0.1353
180.754	-0.29144
181.134	-0.18265
181.515	-0.16093
181.896	-0.1
182.276	-0.0301
182.657	-0.03859
183.038	0.02384
183.418	0.07867
183.799	-0
184.179	-0.06244
184.56	0.03318
184.94	0.02133
185.32	0.01079
185.701	0.0131
186.081	0.02006
186.461	0.01785
186.842	0.01952
187.222	0.01518
187.602	0.01435
187.982	0.0137
188.362	0.01203
188.742	0.01371
189.122	0.01229
189.502	0.01258
189.882	0.01214
190.262	0.01175
190.642	0.01147
191.022	0.01209
191.402	0.01146
191.781	0.01233
192.161	0.01308
192.541	0.01203
192.92	0.01206
193.3	0.01239
193.68	0.01299
194.059	0.01256
194.439	0.01403
194.818	0.01452
195.198	0.01393
195.577	0.01401
195.957	0.01383
196.336	0.01656
196.715	0.01592
197.094	0.01732
197.474	0.01853
197.853	0.01957
198.232	0.02037
198.611	0.02125
198.99	0.02094
199.369	0.02055
199.748	0.0216
200.127	0.02225
200.506	0.02183
200.885	0.02164
201.264	0.02065
201.643	0.01914
202.022	0.01855
202.401	0.01753
202.779	0.01673
203.158	0.01853
203.537	0.01988
203.915	0.02031
204.294	0.01935
204.673	0.01923
205.051	0.01909
205.43	0.01782
205.808	0.01723
206.187	0.01801
206.565	0.01828
206.943	0.01854
207.322	0.01963
207.7	0.01819
208.078	0.018
208.456	0.0191
208.835	0.02013
209.213	0.02186
209.591	0.02204
209.969	0.02215
210.347	0.02258
210.725	0.02204
211.103	0.02094
211.481	0.01917
211.859	0.01972
212.237	0.01929
212.614	0.01923
212.992	0.02085
213.37	0.02036
213.748	0.02205
214.125	0.02023
214.503	0.01907
214.881	0.01871
215.258	0.01911
215.636	0.01809
216.013	0.01808
216.391	0.01788
216.768	0.01725
217.145	0.01687
217.523	0.01715
217.9	0.01687
218.277	0.01652
218.655	0.01687
219.032	0.0178
219.409	0.01731
219.786	0.01675
220.163	0.01624
220.54	0.01448
220.917	0.01396
221.294	0.01528
221.671	0.01415
222.048	0.01552
222.425	0.01661
222.802	0.01633
223.179	0.01639
223.556	0.01724
223.932	0.01636
224.309	0.01676
224.686	0.01666
225.062	0.01724
225.439	0.01781
225.815	0.01784
226.192	0.01759
226.568	0.01748
226.945	0.01808
227.321	0.01928
227.698	0.01845
228.074	0.01844
228.45	0.02073
228.827	0.02042
229.203	0.01949
229.579	0.01968
229.955	0.01954
230.331	0.01871
230.707	0.01958
231.083	0.01961
231.46	0.02031
231.835	0.02085
232.211	0.02016
232.587	0.02094
232.963	0.02008
233.339	0.02038
233.715	0.02148
234.091	0.02238
234.466	0.02307
234.842	0.02208
235.218	0.02159
235.593	0.02185
235.969	0.02167
236.344	0.02016
236.72	0.01959
237.095	0.02015
237.471	0.02049
237.846	0.01998
238.222	0.02059
238.597	0.02191
238.972	0.02129
239.348	0.01998
239.723	0.02019
240.098	0.02015
240.473	0.01922
240.848	0.01999
241.223	0.01865
241.598	0.01773
241.973	0.0179
242.348	0.01801
242.723	0.01955
243.098	0.02093
243.473	0.02153
243.848	0.02278
244.223	0.02284
244.597	0.02162
244.972	0.02099
245.347	0.02145
245.721	0.02153
246.096	0.02116
246.47	0.01935
246.845	0.01991
247.219	0.0215
247.594	0.02109
247.968	0.02088
248.343	0.02082
248.717	0.02054
249.091	0.02158
249.466	0.0229
249.84	0.0218
250.214	0.02139
250.588	0.02048
250.962	0.02021
251.336	0.02027
251.71	0.02019
252.084	0.02076
252.458	0.02229
252.832	0.02274
253.206	0.02257
253.58	0.02251
253.954	0.02288
254.328	0.02266
254.702	0.02269
255.075	0.02209
255.449	0.02178
255.823	0.02168
256.196	0.02197
256.57	0.02121
256.943	0.02115
257.317	0.0204
257.69	0.0213
258.064	0.02039
258.437	0.02042
258.81	0.02001
259.184	0.02098
259.557	0.02076
259.93	0.02075
260.303	0.02067
260.677	0.02035
261.05	0.01989
261.423	0.02135
261.796	0.02135
262.169	0.02253
262.542	0.02355
262.915	0.02438
263.288	0.02461
263.661	0.02482
264.033	0.02489
264.406	0.02492
264.779	0.02435
265.152	0.02484
265.524	0.02502
265.897	0.02647
266.27	0.02537
266.642	0.02534
267.015	0.0243
267.387	0.02384
267.76	0.02418
268.132	0.02383
268.504	0.02424
268.877	0.02418
269.249	0.02291
269.621	0.02279
269.994	0.02261
270.366	0.0224
270.738	0.02174
271.11	0.02157
271.482	0.02211
271.854	0.02184
272.226	0.02235
272.598	0.02233
272.97	0.02245
273.342	0.02228
273.714	0.02144
274.086	0.02236
274.458	0.02232
274.829	0.02197
275.201	0.02255
275.573	0.02309
275.944	0.02326
276.316	0.02322
276.688	0.02309
277.059	0.02315
277.431	0.0223
277.802	0.02115
278.173	0.01946
278.545	0.01709
278.916	0.01395
279.287	0.0106
279.659	0.00794
280.03	0.00605
280.401	0.0059
280.772	0.0064
281.143	0.00747
281.515	0.00897
281.886	0.01037
282.257	0.01086
282.628	0.01108
282.998	0.01036
283.369	0.00891
283.74	0.00783
284.111	0.00696
284.482	0.00627
284.853	0.00568
285.223	0.00521
285.594	0.00481
285.965	0.00446
286.335	0.0042
286.706	0.004
287.076	0.00382
287.447	0.00367
287.817	0.00351
288.188	0.00328
288.558	0.00296
288.928	0.00256
289.299	0.00202
289.669	0.00136
290.039	0.00077
290.409	0.00021
290.779	-0.00011
291.149	-0.00011
291.52	-0.00011
291.89	-0.00011
292.26	-0.00011
292.629	-0.00011
292.999	-0.00011
293.369	-0.00011
293.739	-0.00011
294.109	-0.00011
294.479	-0.00011
294.848	-0.00011
295.218	-0.00011
295.588	-0.00011
295.957	-0.00011
296.327	-0.00011
296.696	-0.00011
297.066	-0.00011
297.435	-0.00011
297.805	-0.00011
298.174	-0.00011
298.544	-0.00011
298.913	-0.00011
299.282	-0.00011
299.651	-0.00011
300.021	-0.00011
300.39	-0.00011
300.759	-0.00011
301.128	-0.00011
301.497	-0.00011
301.866	-0.00011
302.235	-0.00011
302.604	-0.00011
302.973	-0.00011
303.342	-0.00011
303.71	-0.00011
304.079	-0.00011
304.448	-0.00011
304.817	-0.00011
305.185	-0.00011
305.554	-0.00011
305.923	-0.00011
306.291	-0.00011
306.66	-0.00011
307.028	-0.00011
307.397	-0.00011
307.765	-0.00011
308.133	-0.00011
308.502	-0.00011
308.87	-0.00011
309.238	-0.00011
309.606	-0.00011
309.975	-0.00011
310.343	-0.00011
310.711	-0.00011
311.079	-0.00011
311.447	-0.00011
311.815	-0.00011
312.183	-0.00011
312.551	-0.00011
312.919	-0.00011
313.286	-0.00011
313.654	-0.00011
314.022	-0.00011
314.39	-0.00011
314.757	-0.00011
315.125	-0.00011
315.492	-0.00011
315.86	-0.00011
316.228	-0.00011
316.595	-0.00011
316.962	-0.00011
317.33	-0.00011
317.697	-0.00011
318.065	-0.00011
318.432	-0.00011
318.799	-0.00011
319.166	-0.00011
319.534	-0.00011
319.901	-0.00011
320.268	-0.00011
320.635	-0.00011
321.002	-0.00011
321.369	-0.00011
321.736	-0.00011
322.103	-0.00011
322.47	-0.00011
322.836	-0.00011
323.203	-0.00011
323.57	-0.00011
323.937	-0.00011
324.303	-0.00011
324.67	-0.00011
325.037	-0.00011
325.403	-0.00011
325.77	-0.00011
326.136	-0.00011
326.503	-0.00011
326.869	-0.00011
327.235	-0.00011
327.602	-0.00011
327.968	-0.00011
328.334	-0.00011
328.7	-0.00011
329.067	-0.00011
329.433	-0.00011
329.799	-0.00011
330.165	-0.00011
330.531	-0.00011
330.897	-0.00011
331.263	-0.00011
331.629	-0.00011
331.995	-0.00011
332.36	-0.00011
332.726	-0.00011
333.092	-0.00011
333.458	-0.00011
333.823	-0.00011
334.189	-0.00011
334.554	-0.00011
334.92	-0.00011
335.286	-0.00011
335.651	-0.00011
336.016	-0.00011
336.382	-0.00011
336.747	-0.00011
337.113	-0.00011
337.478	-0.00011
337.843	-0.00011
338.208	-0.00011
338.573	-0.00011
338.939	-0.00011
339.304	-0.00011
339.669	-0.00011
340.034	-0.00011
340.399	-0.00011
340.764	-0.00011
341.129	-0.00011
341.493	-0.00011
341.858	-0.00011
342.223	-0.00011
342.588	-0.00011
342.952	-0.00011
343.317	-0.00011
343.682	-0.00011
344.046	-0.00011
344.411	-0.00011
344.775	-0.00011
345.14	-0.00011
345.504	-0.00011
345.869	-0.00011
346.233	-0.00011
346.597	-0.00011
346.962	-0.00011
347.326	-0.00011
347.69	-0.00011
348.054	-0.00011
348.418	-0.00011
348.782	-0.00011
349.146	-0.00011
349.51	-0.00011
349.874	-0.00011
350.238	-0.00011
350.602	-0.00011
350.966	-0.00011
351.33	-0.00011
351.693	-0.00011
352.057	-0.00011
352.421	-0.00011
352.784	-0.00011
353.148	-0.00011
353.512	-0.00011
353.875	-0.00011
354.239	-0.00011
354.602	-0.00011
354.966	-0.00011
355.329	-0.00011
355.692	-0.00011
356.056	-0.00011
356.419	-0.00011
356.782	-0.00011
357.145	-0.00011
357.508	-0.00011
357.871	-0.00011
358.234	-0.00011
358.597	-0.00011
358.96	-0.00011
359.323	-0.00011
359.686	-0.00011
360.049	-0.00011
360.412	-0.00011
360.775	-0.00011
361.137	-0.00011
361.5	-0.00011
361.863	-0.00011
362.225	-0.00011
362.588	-0.00011
362.951	-0.00011
363.313	-0.00011
363.675	-0.00011
364.038	-0.00011
364.4	-0.00011
364.763	-0.00011
365.125	-0.00011
365.487	-0.00011
365.849	-0.00011
366.212	-0.00011
366.574	-0.00011
366.936	-0.00011
367.298	-0.00011
367.66	-0.00011
368.022	-0.00011
368.384	-0.00011
368.746	-0.00011
369.108	-0.00011
369.469	-0.00011
369.831	-0.00011
370.193	-0.00011
370.555	-0.00011
370.916	-0.00011
371.278	-0.00011
371.64	-0.00011
372.001	-0.00011
372.363	-0.00011
372.724	-0.00011
373.086	-0.00011
373.447	-0.00011
373.808	-0.00011
374.17	-0.00011
374.531	-0.00011
374.892	-0.00011
375.253	-0.00011
375.615	-0.00011
375.976	-0.00011
376.337	-0.00011
376.698	-0.00011
377.059	-0.00011
377.42	-0.00011
377.781	-0.00011
378.141	-0.00011
378.502	-0.00011
378.863	-0.00011
379.224	-0.00011
379.585	-0.00011
379.945	-0.00011
380.306	-0.00011
380.666	-0.00011
381.027	-0.00011
381.388	-0.00011
381.748	-0.00011
382.108	-0.00011
382.469	-0.00011
382.829	-0.00011
383.19	-0.00011
383.55	-0.00011
383.91	-0.00011
384.27	-0.00011
384.63	-0.00011
384.991	-0.00011
385.351	-0.00011
385.711	-0.00011
386.071	-0.00011
386.431	-0.00011
386.791	-0.00011
387.15	-0.00011
387.51	-0.00011
387.87	-0.00011
388.23	-0.00011
388.589	-0.00011
388.949	-0.00011
389.309	-0.00011
389.668	-0.00011
390.028	-0.00011
390.387	-0.00011
390.747	-0.00011
391.106	-0.00011
391.466	-0.00011
391.825	-0.00011
392.184	-0.00011
392.544	-0.00011
392.903	-0.00011
393.262	-0.00011
393.621	-0.00011
393.98	-0.00011
394.339	-0.00011
394.698	-0.00011
395.057	-0.00011
395.416	-0.00011
395.775	-0.00011
396.134	-0.00011
396.493	0.00007
396.852	0.00057
397.211	0.00102
397.569	0.00178
397.928	0.00263
398.287	0.00369
398.645	0.00467
399.004	0.00581
399.362	0.00684
399.721	0.00802
400.079	0.00908
400.438	0.00999
400.796	0.01077
401.154	0.01133
401.512	0.0119
401.871	0.01224
402.229	0.0128
402.587	0.01344
402.945	0.01441
403.303	0.01556
403.661	0.01679
404.019	0.01789
404.377	0.01841
404.735	0.01864
405.093	0.01847
405.451	0.01835
405.808	0.018
406.166	0.01772
406.524	0.0174
406.882	0.01737
407.239	0.01724
407.597	0.01723
407.954	0.01743
408.312	0.01768
408.669	0.01807
409.027	0.01839
409.384	0.01904
409.741	0.01951
410.099	0.02001
410.456	0.0202
410.813	0.02056
411.17	0.02101
411.527	0.02164
411.884	0.02257
412.242	0.02404
412.599	0.02572
412.956	0.02735
413.312	0.02934
413.669	0.03166
414.026	0.03402
414.383	0.03644
414.74	0.03901
415.096	0.04163
415.453	0.04444
415.81	0.04764
416.166	0.05133
416.523	0.05505
416.879	0.05855
417.236	0.06187
417.592	0.06488
417.949	0.06791
418.305	0.07142
418.661	0.07508
419.018	0.0795
419.374	0.0842
419.73	0.08919
420.086	0.0944
420.442	0.10001
420.798	0.10548
421.154	0.11082
421.51	0.11613
421.866	0.12127
422.222	0.12633
422.578	0.13144
422.934	0.13642
423.29	0.14122
423.646	0.14569
424.001	0.15047
424.357	0.15575
424.713	0.16154
425.068	0.16813
425.424	0.17532
425.779	0.18151
426.135	0.18769
426.49	0.19252
426.845	0.19685
427.201	0.20051
427.556	0.20356
427.911	0.2056
428.266	0.2073
428.622	0.20867
428.977	0.20971
429.332	0.2105
429.687	0.21121
430.042	0.21162
430.397	0.21199
430.752	0.21212
431.107	0.21232
431.461	0.21236
431.816	0.21236
432.171	0.21236
432.526	0.21234
432.88	0.21223
433.235	0.21207
433.59	0.21193
433.944	0.21165
434.299	0.2115
434.653	0.21121
435.008	0.21106
435.362	0.21066
435.716	0.21026
436.071	0.20995
436.425	0.2094
436.779	0.20897
437.133	0.20835
437.487	0.20787
437.841	0.20735
438.195	0.20701
438.549	0.20641
438.903	0.20588
439.257	0.20525
439.611	0.20462
439.965	0.20382
440.319	0.20281
440.673	0.202
441.026	0.20105
441.38	0.20008
441.734	0.19923
442.087	0.19819
442.441	0.19703
442.794	0.19607
443.148	0.19503
443.501	0.19373
443.855	0.19241
444.208	0.19106
444.561	0.18982
444.915	0.18855
445.268	0.18701
445.621	0.18549
445.974	0.18399
446.327	0.18262
446.68	0.18097
447.033	0.17945
447.386	0.17802
447.739	0.1767
448.092	0.17535
448.445	0.17395
448.798	0.17238
449.15	0.1706
449.503	0.16907
449.856	0.16764
450.209	0.16605
450.561	0.16459
450.914	0.163
451.266	0.16148
451.619	0.15992
451.971	0.15825
452.323	0.15661
452.676	0.15508
453.028	0.15346
453.38	0.15179
453.733	0.15002
454.085	0.14843
454.437	0.1469
454.789	0.14516
455.141	0.1433
455.493	0.14145
455.845	0.13969
456.197	0.138
456.549	0.13636
456.901	0.13455
457.253	0.13272
457.604	0.13093
457.956	0.12908
458.308	0.12745
458.659	0.12589
459.011	0.12415
459.362	0.12243
459.714	0.12069
460.065	0.11892
460.417	0.11726
460.768	0.11576
461.12	0.11399
461.471	0.11228
461.822	0.1104
462.173	0.10883
462.525	0.10722
462.876	0.10574
463.227	0.10417
463.578	0.1026
463.929	0.10102
464.28	0.09945
464.631	0.09794
464.982	0.09647
465.332	0.095
465.683	0.09356
466.034	0.09202
466.385	0.09046
466.735	0.08902
467.086	0.08767
467.437	0.08632
467.787	0.0848
468.138	0.0833
468.488	0.08204
468.839	0.08062
469.189	0.07935
469.539	0.07809
469.89	0.07679
470.24	0.07555
470.59	0.07426
470.94	0.07299
471.29	0.0718
471.64	0.07063
471.99	0.06946
472.34	0.06824
472.69	0.06716
473.04	0.06591
473.39	0.06483
473.74	0.06381
474.09	0.06277
474.439	0.06153
474.789	0.06051
475.139	0.05961
475.488	0.05854
475.838	0.05756
476.188	0.05677
476.537	0.05589
476.886	0.05496
477.236	0.05406
477.585	0.05309
477.935	0.05211
478.284	0.05125
478.633	0.05036
478.982	0.04964
479.331	0.04865
479.68	0.04802
480.03	0.04711
480.379	0.0464
480.728	0.04552
481.076	0.04478
481.425	0.04386
481.774	0.04321
482.123	0.04254
482.472	0.04187
482.821	0.04116
483.169	0.04039
483.518	0.03967
483.866	0.03895
484.215	0.03811
484.563	0.03746
484.912	0.0367
485.26	0.03598
485.609	0.03529
485.957	0.03477
486.305	0.03404
486.654	0.03355
487.002	0.03275
487.35	0.03218
487.698	0.03155
488.046	0.03105
488.394	0.03047
488.742	0.03006
489.09	0.02958
489.438	0.02904
489.786	0.02849
490.134	0.02796
490.482	0.02755
490.829	0.02693
491.177	0.02638
491.525	0.02597
491.872	0.02545
492.22	0.02507
492.567	0.02472
492.915	0.02429
493.262	0.02364
493.61	0.02332
493.957	0.0229
494.304	0.02256
494.652	0.02207
494.999	0.02161
495.346	0.02128
495.693	0.02086
496.04	0.02044
496.387	0.01998
496.734	0.01949
497.081	0.01901
497.428	0.01878
497.775	0.01834
498.122	0.01813
498.469	0.01778
498.816	0.01756
499.162	0.01729
499.509	0.01691
499.856	0.01652
500.202	0.01624
500.549	0.01609
500.895	0.01574
501.242	0.0154
501.588	0.01524
501.935	0.01506
502.281	0.01492
502.627	0.01463
502.973	0.01437
503.32	0.01414
503.666	0.01395
504.012	0.01367
504.358	0.01344
504.704	0.013
505.05	0.01281
505.396	0.01247
505.742	0.01225
506.088	0.01193
506.433	0.0117
506.779	0.01144
507.125	0.01126
507.471	0.01101
507.816	0.01067
508.162	0.0103
508.507	0.00996
508.853	0.00962
509.198	0.00935
509.544	0.00904
509.889	0.00873
510.234	0.00848
510.58	0.00817
510.925	0.00791
511.27	0.00765
511.615	0.00743
511.96	0.00723
512.306	0.00699
512.651	0.00675
512.996	0.00656
513.341	0.00634
513.685	0.0061
514.03	0.00585
514.375	0.00566
514.72	0.00539
515.065	0.00526
515.409	0.00506
515.754	0.00491
516.099	0.00477
516.443	0.00456
516.788	0.00437
517.132	0.00415
517.476	0.00399
517.821	0.00384
518.165	0.00367
518.51	0.00356
518.854	0.00337
519.198	0.00323
519.542	0.00312
519.886	0.00296
520.23	0.00278
520.574	0.00262
520.918	0.00241
521.262	0.00235
521.606	0.00217
521.95	0.00212
522.294	0.00201
522.638	0.00196
522.981	0.00183
523.325	0.00168
523.669	0.00152
524.012	0.00144
524.356	0.00135
524.699	0.00123
525.043	0.00116
525.386	0.00108
525.73	0.00094
526.073	0.00085
526.416	0.0008
526.76	0.00063
527.103	0.00058
527.446	0.00056
527.789	0.00046
528.132	0.00039
528.475	0.00023
528.818	0.00013
529.161	0.00008
529.504	-0.00005
529.847	-0.00016
530.19	-0.00024
530.532	-0.00035
530.875	-0.00035
531.218	-0.00046
531.56	-0.00051
531.903	-0.00059
532.246	-0.0007
532.588	-0.00079
532.93	-0.00084
533.273	-0.00086
533.615	-0.001
533.958	-0.00101
534.3	-0.00106
534.642	-0.00118
534.984	-0.00121
535.326	-0.00125
535.669	-0.00133
536.011	-0.00139
536.353	-0.00156
536.695	-0.00169
537.037	-0.00178
537.378	-0.00184
537.72	-0.00192
538.062	-0.00203
538.404	-0.00214
538.746	-0.0022
539.087	-0.00232
539.429	-0.00231
539.77	-0.00234
540.112	-0.00246
540.454	-0.0026
540.795	-0.00268
541.136	-0.00278
541.478	-0.00291
541.819	-0.00301
542.16	-0.00312
542.502	-0.00319
542.843	-0.0033
543.184	-0.00343
543.525	-0.0035
543.866	-0.00347
544.207	-0.00352
544.548	-0.00353
544.889	-0.0036
545.23	-0.00367
545.571	-0.00372
545.911	-0.0039
546.252	-0.00395
546.593	-0.00414
546.934	-0.00425
547.274	-0.00427
547.615	-0.0043
547.955	-0.00438
548.296	-0.00443
548.636	-0.00447
548.977	-0.00454
549.317	-0.00461
549.657	-0.00467
549.997	-0.0047
550.338	-0.00477
550.678	-0.00481
551.018	-0.00491
551.358	-0.00494
551.698	-0.0051
552.038	-0.00518
552.378	-0.00513
552.718	-0.00517
553.058	-0.00512
553.398	-0.00512
553.737	-0.00508
554.077	-0.00512
554.417	-0.0052
554.756	-0.0052
555.096	-0.00522
555.435	-0.00533
555.775	-0.00535
556.114	-0.00537
556.454	-0.00537
556.793	-0.00539
557.133	-0.00537
557.472	-0.00527
557.811	-0.00526
558.15	-0.00526
558.489	-0.00525
558.829	-0.00523
559.168	-0.00525
559.507	-0.00528
559.846	-0.00524
560.184	-0.00525
560.523	-0.00526
560.862	-0.00525
561.201	-0.00522
561.54	-0.00513
561.878	-0.00515
562.217	-0.00507
562.556	-0.00501
562.894	-0.00497
563.233	-0.00496
563.571	-0.00496
563.91	-0.00493
564.248	-0.00489
564.586	-0.00492
564.925	-0.0049
565.263	-0.00483
565.601	-0.00475
565.939	-0.00472
566.277	-0.00461
566.616	-0.00465
566.954	-0.00469
567.292	-0.00465
567.63	-0.00462
567.967	-0.00462
568.305	-0.00465
568.643	-0.00465
568.981	-0.00465
569.319	-0.00469
569.656	-0.00468
569.994	-0.00471
570.331	-0.00467
570.669	-0.00466
571.006	-0.00471
571.344	-0.00466
571.681	-0.00467
572.019	-0.00466
572.356	-0.00468
572.693	-0.00474
573.03	-0.00468
573.368	-0.00479
573.705	-0.00473
574.042	-0.0047
574.379	-0.00471
574.716	-0.00466
575.053	-0.00465
575.39	-0.00463
575.727	-0.00465
576.063	-0.00462
576.4	-0.00459
576.737	-0.0046
577.074	-0.00456
577.41	-0.00456
577.747	-0.00454
578.083	-0.00449
578.42	-0.00451
578.756	-0.00448
579.093	-0.0045
579.429	-0.00455
579.766	-0.00457
580.102	-0.00462
580.438	-0.00456
580.774	-0.00462
581.11	-0.00462
581.446	-0.00465
581.782	-0.00474
582.119	-0.00479
582.454	-0.00485
582.79	-0.00486
583.126	-0.00488
583.462	-0.0049
583.798	-0.00491
584.134	-0.00496
584.469	-0.00502
584.805	-0.00503
585.141	-0.00506
585.476	-0.00514
585.812	-0.00515
586.147	-0.00515
586.482	-0.00517
586.818	-0.00517
587.153	-0.00518
587.488	-0.00524
587.824	-0.00525
