Data from gold and silver NP mixed in toluene and OLY_Absorbance_12-13-15-858.txt Node
Date: Wed Jan 18 12:13:15 EST 2023
User: UV-vis
Spectrometer: FLMS04918
Trigger mode: 0
Integration Time (sec): 3.550000E-3
Scans to average: 10
Electric dark correction enabled: true
Nonlinearity correction enabled: false
Boxcar width: 10
XAxis mode: Wavelengths
Number of Pixels in Spectrum: 2048
>>>>>Begin Spectral Data<<<<<
179.23	0.00316
179.611	-0.0575
179.992	-0.16994
180.373	-0.05053
180.754	-0.04212
181.134	0.02482
181.515	-0.05194
181.896	-0.08058
182.276	0.15908
182.657	0.08208
183.038	0.20389
183.418	-0.37475
183.799	0.16615
184.179	0.17606
184.56	0.29205
184.94	0.30836
185.32	0.32471
185.701	0.32441
186.081	0.32355
186.461	0.32045
186.842	0.32284
187.222	0.31967
187.602	0.32261
187.982	0.32744
188.362	0.32918
188.742	0.32797
189.122	0.32772
189.502	0.32822
189.882	0.33121
190.262	0.32696
190.642	0.32697
191.022	0.32793
191.402	0.328
191.781	0.32846
192.161	0.33203
192.541	0.33107
192.92	0.3329
193.3	0.33389
193.68	0.33553
194.059	0.34004
194.439	0.34146
194.818	0.34311
195.198	0.3465
195.577	0.3459
195.957	0.34663
196.336	0.3468
196.715	0.34967
197.094	0.35059
197.474	0.35154
197.853	0.35106
198.232	0.3542
198.611	0.35586
198.99	0.35611
199.369	0.35732
199.748	0.35653
200.127	0.35659
200.506	0.35717
200.885	0.35895
201.264	0.36027
201.643	0.36077
202.022	0.35805
202.401	0.36061
202.779	0.35933
203.158	0.35827
203.537	0.36118
203.915	0.36123
204.294	0.35911
204.673	0.35676
205.051	0.35729
205.43	0.35924
205.808	0.35832
206.187	0.35878
206.565	0.35767
206.943	0.35733
207.322	0.35802
207.7	0.359
208.078	0.35931
208.456	0.36048
208.835	0.35885
209.213	0.3595
209.591	0.36017
209.969	0.35915
210.347	0.35769
210.725	0.35674
211.103	0.35795
211.481	0.35861
211.859	0.35923
212.237	0.36393
212.614	0.368
212.992	0.36798
213.37	0.36701
213.748	0.3681
214.125	0.36694
214.503	0.37032
214.881	0.37066
215.258	0.37231
215.636	0.37509
216.013	0.37686
216.391	0.37865
216.768	0.37915
217.145	0.3806
217.523	0.38162
217.9	0.38349
218.277	0.38404
218.655	0.38695
219.032	0.3877
219.409	0.38702
219.786	0.38587
220.163	0.38381
220.54	0.38435
220.917	0.38347
221.294	0.38338
221.671	0.38634
222.048	0.38809
222.425	0.38697
222.802	0.38909
223.179	0.38996
223.556	0.38859
223.932	0.38875
224.309	0.38762
224.686	0.38864
225.062	0.38984
225.439	0.39011
225.815	0.39273
226.192	0.39285
226.568	0.39294
226.945	0.39528
227.321	0.39491
227.698	0.39796
228.074	0.39976
228.45	0.39808
228.827	0.39902
229.203	0.40109
229.579	0.40057
229.955	0.39984
230.331	0.40138
230.707	0.40141
231.083	0.40273
231.46	0.40432
231.835	0.40558
232.211	0.40618
232.587	0.40659
232.963	0.40524
233.339	0.40759
233.715	0.40692
234.091	0.40816
234.466	0.40941
234.842	0.40739
235.218	0.40911
235.593	0.40768
235.969	0.40864
236.344	0.40898
236.72	0.41123
237.095	0.41064
237.471	0.40873
237.846	0.41189
238.222	0.41161
238.597	0.41186
238.972	0.41256
239.348	0.41387
239.723	0.41249
240.098	0.41334
240.473	0.41508
240.848	0.41758
241.223	0.41478
241.598	0.41703
241.973	0.42
242.348	0.41999
242.723	0.42263
243.098	0.42318
243.473	0.42413
243.848	0.42509
244.223	0.42706
244.597	0.42925
244.972	0.43175
245.347	0.43571
245.721	0.43642
246.096	0.44047
246.47	0.44461
246.845	0.44566
247.219	0.4443
247.594	0.44567
247.968	0.44895
248.343	0.45087
248.717	0.45291
249.091	0.4574
249.466	0.45859
249.84	0.45754
250.214	0.45758
250.588	0.45807
250.962	0.4617
251.336	0.46492
251.71	0.46735
252.084	0.46999
252.458	0.47176
252.832	0.4765
253.206	0.47714
253.58	0.47931
253.954	0.48072
254.328	0.47924
254.702	0.48112
255.075	0.48595
255.449	0.48946
255.823	0.491
256.196	0.49126
256.57	0.49249
256.943	0.49294
257.317	0.49629
257.69	0.5014
258.064	0.50698
258.437	0.51087
258.81	0.51378
259.184	0.51678
259.557	0.51879
259.93	0.52077
260.303	0.52397
260.677	0.52391
261.05	0.52646
261.423	0.52803
261.796	0.5292
262.169	0.5327
262.542	0.53612
262.915	0.53702
263.288	0.53976
263.661	0.54157
264.033	0.54508
264.406	0.54601
264.779	0.55096
265.152	0.55223
265.524	0.55409
265.897	0.55777
266.27	0.55894
266.642	0.56006
267.015	0.56268
267.387	0.565
267.76	0.56638
268.132	0.56794
268.504	0.56989
268.877	0.57235
269.249	0.57565
269.621	0.57877
269.994	0.58279
270.366	0.58676
270.738	0.59165
271.11	0.59412
271.482	0.59768
271.854	0.60084
272.226	0.60457
272.598	0.60746
272.97	0.61131
273.342	0.61493
273.714	0.61843
274.086	0.62342
274.458	0.62885
274.829	0.63311
275.201	0.64075
275.573	0.64667
275.944	0.65289
276.316	0.66015
276.688	0.66888
277.059	0.67898
277.431	0.68896
277.802	0.70172
278.173	0.71872
278.545	0.74654
278.916	0.78808
279.287	0.84343
279.659	0.91016
280.03	0.98142
280.401	1.0514
280.772	1.1158
281.143	1.1698
281.515	1.21131
281.886	1.23913
282.257	1.25542
282.628	1.26189
282.998	1.26004
283.369	1.25528
283.74	1.24668
284.111	1.23591
284.482	1.22361
284.853	1.21055
285.223	1.19668
285.594	1.18274
285.965	1.16917
286.335	1.1545
286.706	1.13969
287.076	1.12403
287.447	1.10782
287.817	1.09098
288.188	1.07348
288.558	1.05441
288.928	1.03431
289.299	1.01296
289.669	0.99188
290.039	0.9709
290.409	0.95099
290.779	0.93276
291.149	0.91524
291.52	0.89904
291.89	0.88411
292.26	0.87001
292.629	0.85674
292.999	0.84469
293.369	0.83305
293.739	0.82231
294.109	0.81241
294.479	0.80315
294.848	0.79443
295.218	0.78584
295.588	0.7773
295.957	0.76868
296.327	0.76051
296.696	0.75207
297.066	0.74366
297.435	0.73527
297.805	0.72661
298.174	0.71815
298.544	0.70942
298.913	0.70077
299.282	0.69231
299.651	0.68363
300.021	0.67532
300.39	0.66713
300.759	0.65915
301.128	0.65195
301.497	0.6449
301.866	0.63845
302.235	0.63191
302.604	0.62584
302.973	0.61996
303.342	0.61399
303.71	0.60764
304.079	0.60109
304.448	0.59428
304.817	0.58727
305.185	0.57986
305.554	0.57233
305.923	0.56469
306.291	0.55691
306.66	0.54945
307.028	0.54221
307.397	0.53464
307.765	0.52735
308.133	0.51994
308.502	0.51278
308.87	0.50507
309.238	0.4974
309.606	0.48991
309.975	0.48272
310.343	0.47558
310.711	0.46891
311.079	0.4628
311.447	0.45701
311.815	0.45181
312.183	0.44767
312.551	0.44421
312.919	0.44148
313.286	0.43974
313.654	0.43891
314.022	0.43889
314.39	0.43913
314.757	0.4392
315.125	0.43975
315.492	0.43997
315.86	0.43998
316.228	0.43935
316.595	0.43851
316.962	0.43692
317.33	0.43471
317.697	0.432
318.065	0.42878
318.432	0.42477
318.799	0.42053
319.166	0.41633
319.534	0.41206
319.901	0.40788
320.268	0.40437
320.635	0.4011
321.002	0.39778
321.369	0.39415
321.736	0.3901
322.103	0.38597
322.47	0.38181
322.836	0.37778
323.203	0.37376
323.57	0.36992
323.937	0.36639
324.303	0.36298
324.67	0.36016
325.037	0.35744
325.403	0.35537
325.77	0.35338
326.136	0.35187
326.503	0.35045
326.869	0.34926
327.235	0.34807
327.602	0.34657
327.968	0.3447
328.334	0.34243
328.7	0.3401
329.067	0.33767
329.433	0.33536
329.799	0.33307
330.165	0.33115
330.531	0.32928
330.897	0.32764
331.263	0.32658
331.629	0.32563
331.995	0.32531
332.36	0.32526
332.726	0.32535
333.092	0.32542
333.458	0.32596
333.823	0.32635
334.189	0.32708
334.554	0.32777
334.92	0.32855
335.286	0.32947
335.651	0.33043
336.016	0.33144
336.382	0.33253
336.747	0.33348
337.113	0.33441
337.478	0.33542
337.843	0.33647
338.208	0.33756
338.573	0.33874
338.939	0.34008
339.304	0.34152
339.669	0.34289
340.034	0.34394
340.399	0.34555
340.764	0.34694
341.129	0.34852
341.493	0.35038
341.858	0.35205
342.223	0.35415
342.588	0.35625
342.952	0.3584
343.317	0.36045
343.682	0.36241
344.046	0.36433
344.411	0.36658
344.775	0.36889
345.14	0.37114
345.504	0.37339
345.869	0.37542
346.233	0.37735
346.597	0.37877
346.962	0.38034
347.326	0.3816
347.69	0.38297
348.054	0.3837
348.418	0.38459
348.782	0.38507
349.146	0.38549
349.51	0.38592
349.874	0.38625
350.238	0.38667
350.602	0.38686
350.966	0.38723
351.33	0.3878
351.693	0.38823
352.057	0.38869
352.421	0.38938
352.784	0.39032
353.148	0.39111
353.512	0.39235
353.875	0.39361
354.239	0.39506
354.602	0.39649
354.966	0.39802
355.329	0.40002
355.692	0.40236
356.056	0.40492
356.419	0.40779
356.782	0.41085
357.145	0.41408
357.508	0.41715
357.871	0.42026
358.234	0.42374
358.597	0.42708
358.96	0.43043
359.323	0.43401
359.686	0.43743
360.049	0.44084
360.412	0.44401
360.775	0.44705
361.137	0.44975
361.5	0.45251
361.863	0.45515
362.225	0.45764
362.588	0.46015
362.951	0.4622
363.313	0.46415
363.675	0.46571
364.038	0.46746
364.4	0.46919
364.763	0.47113
365.125	0.4731
365.487	0.47511
365.849	0.47726
366.212	0.47937
366.574	0.48187
366.936	0.48435
367.298	0.48704
367.66	0.48934
368.022	0.49191
368.384	0.49448
368.746	0.4971
369.108	0.49972
369.469	0.5024
369.831	0.50489
370.193	0.50759
370.555	0.5101
370.916	0.51266
371.278	0.51522
371.64	0.51737
372.001	0.51981
372.363	0.52179
372.724	0.52409
373.086	0.52635
373.447	0.52823
373.808	0.53005
374.17	0.53136
374.531	0.53266
374.892	0.53369
375.253	0.53502
375.615	0.53645
375.976	0.53819
376.337	0.54052
376.698	0.54327
377.059	0.54595
377.42	0.54926
377.781	0.55302
378.141	0.55721
378.502	0.56103
378.863	0.56515
379.224	0.5697
379.585	0.57386
379.945	0.57829
380.306	0.58259
380.666	0.58673
381.027	0.59096
381.388	0.59511
381.748	0.59969
382.108	0.60397
382.469	0.60857
382.829	0.61305
383.19	0.6172
383.55	0.62094
383.91	0.62405
384.27	0.62624
384.63	0.62858
384.991	0.63059
385.351	0.63204
385.711	0.63411
386.071	0.6368
386.431	0.63919
386.791	0.64143
387.15	0.64396
387.51	0.6463
387.87	0.64792
388.23	0.6495
388.589	0.65073
388.949	0.6516
389.309	0.65277
389.668	0.65469
390.028	0.65703
390.387	0.65995
390.747	0.66366
391.106	0.668
391.466	0.67307
391.825	0.67938
392.184	0.68591
392.544	0.69252
392.903	0.69972
393.262	0.706
393.621	0.71211
393.98	0.71843
394.339	0.72437
394.698	0.73016
395.057	0.73631
395.416	0.7437
395.775	0.75181
396.134	0.76099
396.493	0.77123
396.852	0.78164
397.211	0.79174
397.569	0.80194
397.928	0.81197
398.287	0.82156
398.645	0.8308
399.004	0.83994
399.362	0.84826
399.721	0.85683
400.079	0.86523
400.438	0.87273
400.796	0.88054
401.154	0.88805
401.512	0.89619
401.871	0.90446
402.229	0.91323
402.587	0.92202
402.945	0.93062
403.303	0.93884
403.661	0.94641
404.019	0.95386
404.377	0.9601
404.735	0.96605
405.093	0.971
405.451	0.97625
405.808	0.981
406.166	0.98608
406.524	0.99072
406.882	0.99597
407.239	1.00102
407.597	1.00635
407.954	1.01215
408.312	1.01821
408.669	1.02482
409.027	1.03118
409.384	1.03816
409.741	1.04476
410.099	1.0514
410.456	1.05743
410.813	1.06362
411.17	1.07003
411.527	1.0767
411.884	1.08397
412.242	1.09208
412.599	1.10069
412.956	1.10885
413.312	1.11779
413.669	1.12711
414.026	1.13642
414.383	1.14554
414.74	1.15489
415.096	1.16421
415.453	1.17374
415.81	1.18368
416.166	1.19412
416.523	1.20469
416.879	1.21513
417.236	1.22516
417.592	1.23502
417.949	1.24429
418.305	1.25437
418.661	1.2642
419.018	1.27409
419.374	1.28469
419.73	1.2957
420.086	1.30609
420.442	1.31714
420.798	1.32758
421.154	1.3375
421.51	1.34742
421.866	1.35699
422.222	1.36573
422.578	1.37424
422.934	1.38233
423.29	1.38995
423.646	1.3968
424.001	1.40424
424.357	1.41114
424.713	1.41905
425.068	1.42665
425.424	1.43565
425.779	1.44215
426.135	1.44866
426.49	1.45427
426.845	1.45795
427.201	1.45998
427.556	1.46246
427.911	1.46294
428.266	1.46264
428.622	1.46165
428.977	1.45972
429.332	1.45774
429.687	1.45537
430.042	1.45418
430.397	1.45302
430.752	1.45156
431.107	1.45028
431.461	1.44787
431.816	1.44656
432.171	1.44492
432.526	1.44336
432.88	1.44088
433.235	1.43835
433.59	1.43543
433.944	1.43165
434.299	1.42807
434.653	1.42419
435.008	1.42021
435.362	1.4161
435.716	1.41176
436.071	1.40761
436.425	1.40357
436.779	1.39877
437.133	1.394
437.487	1.38803
437.841	1.38224
438.195	1.37598
438.549	1.36943
438.903	1.3625
439.257	1.35509
439.611	1.34697
439.965	1.33937
440.319	1.33134
440.673	1.32371
441.026	1.31502
441.38	1.30695
441.734	1.29895
442.087	1.2908
442.441	1.28296
442.794	1.27518
443.148	1.26694
443.501	1.25828
443.855	1.24938
444.208	1.24037
444.561	1.23218
444.915	1.22395
445.268	1.21481
445.621	1.2066
445.974	1.19874
446.327	1.19057
446.68	1.18317
447.033	1.17539
447.386	1.16684
447.739	1.15892
448.092	1.15088
448.445	1.14325
448.798	1.13522
449.15	1.12706
449.503	1.11886
449.856	1.11088
450.209	1.10244
450.561	1.09433
450.914	1.0869
451.266	1.07908
451.619	1.07151
451.971	1.06326
452.323	1.05511
452.676	1.04725
453.028	1.03897
453.38	1.03053
453.733	1.02231
454.085	1.01382
454.437	1.00593
454.789	0.99826
455.141	0.99036
455.493	0.98242
455.845	0.9742
456.197	0.96638
456.549	0.95872
456.901	0.95116
457.253	0.9434
457.604	0.93613
457.956	0.92884
458.308	0.92133
458.659	0.91384
459.011	0.90636
459.362	0.89941
459.714	0.89199
460.065	0.88514
460.417	0.87872
460.768	0.87218
461.12	0.86564
461.471	0.85925
461.822	0.85281
462.173	0.84632
462.525	0.84022
462.876	0.83408
463.227	0.82814
463.578	0.82199
463.929	0.81601
464.28	0.81019
464.631	0.80473
464.982	0.79906
465.332	0.79361
465.683	0.7882
466.034	0.78335
466.385	0.77821
466.735	0.77309
467.086	0.76878
467.437	0.76386
467.787	0.75915
468.138	0.75454
468.488	0.75007
468.839	0.74554
469.189	0.74143
469.539	0.73726
469.89	0.73288
470.24	0.7287
470.59	0.72494
470.94	0.72131
471.29	0.7177
471.64	0.71418
471.99	0.71045
472.34	0.70669
472.69	0.70333
473.04	0.70013
473.39	0.6967
473.74	0.69381
474.09	0.69067
474.439	0.68777
474.789	0.68488
475.139	0.68184
475.488	0.67879
475.838	0.67617
476.188	0.6734
476.537	0.67051
476.886	0.6682
477.236	0.66583
477.585	0.66351
477.935	0.66094
478.284	0.65871
478.633	0.65655
478.982	0.65441
479.331	0.65222
479.68	0.65043
480.03	0.64824
480.379	0.64606
480.728	0.64413
481.076	0.64214
481.425	0.64055
481.774	0.63848
482.123	0.63683
482.472	0.63527
482.821	0.63388
483.169	0.63232
483.518	0.63122
483.866	0.63002
484.215	0.62864
484.563	0.62743
484.912	0.62629
485.26	0.62535
485.609	0.62435
485.957	0.62351
486.305	0.62258
486.654	0.62171
487.002	0.62088
487.35	0.62048
487.698	0.61991
488.046	0.61939
488.394	0.61881
488.742	0.61819
489.09	0.61773
489.438	0.61729
489.786	0.61698
490.134	0.61665
490.482	0.61628
490.829	0.61597
491.177	0.61575
491.525	0.61559
491.872	0.61545
492.22	0.61554
492.567	0.61562
492.915	0.61566
493.262	0.61565
493.61	0.61592
493.957	0.61626
494.304	0.61661
494.652	0.61683
494.999	0.61721
495.346	0.6178
495.693	0.61844
496.04	0.61914
496.387	0.61985
496.734	0.62068
497.081	0.62139
497.428	0.62203
497.775	0.62306
498.122	0.62379
498.469	0.62461
498.816	0.62569
499.162	0.62695
499.509	0.62795
499.856	0.629
500.202	0.63026
500.549	0.63166
500.895	0.63284
501.242	0.63407
501.588	0.63523
501.935	0.63657
502.281	0.6377
502.627	0.63906
502.973	0.6404
503.32	0.6418
503.666	0.64338
504.012	0.64482
504.358	0.64635
504.704	0.64801
505.05	0.64944
505.396	0.65107
505.742	0.6527
506.088	0.65433
506.433	0.65565
506.779	0.65732
507.125	0.65881
507.471	0.66026
507.816	0.6616
508.162	0.66316
508.507	0.6647
508.853	0.6663
509.198	0.66785
509.544	0.66961
509.889	0.67094
510.234	0.67261
510.58	0.67415
510.925	0.67573
511.27	0.67719
511.615	0.67867
511.96	0.68025
512.306	0.68173
512.651	0.68312
512.996	0.68466
513.341	0.686
513.685	0.68746
514.03	0.68869
514.375	0.68993
514.72	0.69125
515.065	0.69249
515.409	0.69378
515.754	0.69484
516.099	0.69601
516.443	0.69713
516.788	0.69825
517.132	0.69938
517.476	0.70023
517.821	0.70115
518.165	0.70194
518.51	0.70268
518.854	0.70331
519.198	0.70379
519.542	0.70433
519.886	0.70498
520.23	0.70539
520.574	0.70562
520.918	0.70573
521.262	0.70593
521.606	0.70623
521.95	0.7063
522.294	0.70644
522.638	0.70634
522.981	0.70637
523.325	0.70634
523.669	0.70602
524.012	0.70582
524.356	0.70556
524.699	0.70519
525.043	0.70454
525.386	0.70395
525.73	0.70343
526.073	0.70266
526.416	0.70206
526.76	0.70146
527.103	0.70058
527.446	0.69982
527.789	0.69895
528.132	0.69817
528.475	0.69735
528.818	0.69634
529.161	0.69539
529.504	0.69437
529.847	0.69338
530.19	0.69211
530.532	0.69077
530.875	0.68956
531.218	0.68809
531.56	0.68664
531.903	0.68518
532.246	0.68375
532.588	0.68231
532.93	0.68066
533.273	0.67919
533.615	0.67753
533.958	0.67564
534.3	0.67385
534.642	0.6719
534.984	0.67006
535.326	0.66821
535.669	0.6659
536.011	0.66376
536.353	0.66145
536.695	0.65901
537.037	0.65664
537.378	0.65427
537.72	0.65184
538.062	0.64914
538.404	0.6465
538.746	0.64383
539.087	0.64116
539.429	0.63844
539.77	0.63553
540.112	0.63276
540.454	0.63
540.795	0.62699
541.136	0.62382
541.478	0.62058
541.819	0.61727
542.16	0.61393
542.502	0.61043
542.843	0.60729
543.184	0.60398
543.525	0.60044
543.866	0.59684
544.207	0.59324
544.548	0.58966
544.889	0.5859
545.23	0.58225
545.571	0.57849
545.911	0.5747
546.252	0.57085
546.593	0.56697
546.934	0.56294
547.274	0.55895
547.615	0.55486
547.955	0.55089
548.296	0.54689
548.636	0.5429
548.977	0.53888
549.317	0.5347
549.657	0.53057
549.997	0.52629
550.338	0.522
550.678	0.51786
551.018	0.51387
551.358	0.50957
551.698	0.50529
552.038	0.50106
552.378	0.49688
552.718	0.49264
553.058	0.48841
553.398	0.48405
553.737	0.47972
554.077	0.47556
554.417	0.47107
554.756	0.46666
555.096	0.46225
555.435	0.45794
555.775	0.45349
556.114	0.44924
556.454	0.44492
556.793	0.44058
557.133	0.43621
557.472	0.43174
557.811	0.42724
558.15	0.4227
558.489	0.41837
558.829	0.414
559.168	0.40959
559.507	0.40525
559.846	0.40095
560.184	0.39656
560.523	0.39231
560.862	0.388
561.201	0.38356
561.54	0.37929
561.878	0.37509
562.217	0.37074
562.556	0.3665
562.894	0.36229
563.233	0.35805
563.571	0.3539
563.91	0.34978
564.248	0.34586
564.586	0.34185
564.925	0.33795
565.263	0.33398
565.601	0.32995
565.939	0.32604
566.277	0.32218
566.616	0.31829
566.954	0.3145
567.292	0.31066
567.63	0.3068
567.967	0.30314
568.305	0.29945
568.643	0.29584
568.981	0.29222
569.319	0.2887
569.656	0.28512
569.994	0.28169
570.331	0.27822
570.669	0.27483
571.006	0.27137
571.344	0.26789
571.681	0.26459
572.019	0.26135
572.356	0.25817
572.693	0.25503
573.03	0.25191
573.368	0.24877
573.705	0.24568
574.042	0.24267
574.379	0.23971
574.716	0.23685
575.053	0.23396
575.39	0.23127
575.727	0.22854
576.063	0.22583
576.4	0.22322
576.737	0.22063
577.074	0.21807
577.41	0.21559
577.747	0.21305
578.083	0.21074
578.42	0.20834
578.756	0.20613
579.093	0.20387
579.429	0.20164
579.766	0.19941
580.102	0.19728
580.438	0.19526
580.774	0.19322
581.11	0.19126
581.446	0.18924
581.782	0.1873
582.119	0.18539
582.454	0.18349
582.79	0.18173
583.126	0.17994
583.462	0.17825
583.798	0.1765
584.134	0.17478
584.469	0.17306
584.805	0.17149
585.141	0.16981
585.476	0.16832
585.812	0.1667
586.147	0.16508
586.482	0.16363
586.818	0.16226
587.153	0.1608
587.488	0.15937
587.824	0.15796
588.159	0.15651
588.494	0.15528
588.829	0.15394
589.164	0.15265
589.499	0.1513
589.834	0.14997
590.169	0.14864
590.504	0.14731
590.839	0.14616
591.174	0.14501
591.508	0.14383
591.843	0.14264
592.178	0.14146
592.512	0.14029
592.847	0.13918
593.181	0.13812
593.516	0.137
593.85	0.13584
594.185	0.13475
594.519	0.13363
594.853	0.13258
595.187	0.13159
595.522	0.13053
595.856	0.12954
596.19	0.12854
596.524	0.12764
596.858	0.12669
597.192	0.12574
597.526	0.1249
