Data from gold and silver NP mixed in toluene and OLY_Absorbance_16-47-24-964.txt Node
Date: Wed Jan 18 16:47:24 EST 2023
User: UV-vis
Spectrometer: FLMS04918
Trigger mode: 0
Integration Time (sec): 3.550000E-3
Scans to average: 10
Electric dark correction enabled: true
Nonlinearity correction enabled: false
Boxcar width: 10
XAxis mode: Wavelengths
Number of Pixels in Spectrum: 2048
>>>>>Begin Spectral Data<<<<<
179.23	0.15581
179.611	0.13503
179.992	0.22122
180.373	0.20251
180.754	0.1687
181.134	0.14285
181.515	0.04609
181.896	-0.06489
182.276	-0.00939
182.657	-0.04588
183.038	-0.03027
183.418	1.03669
183.799	-0
184.179	-0
184.56	-0
184.94	-0
185.32	-0
185.701	-0
186.081	-0
186.461	-0
186.842	-0
187.222	-0
187.602	-0
187.982	2.95491
188.362	-0
188.742	-0
189.122	-0
189.502	3.68726
189.882	-0
190.262	-0
190.642	2.66958
191.022	2.93393
191.402	2.44387
191.781	2.35
192.161	2.3595
192.541	2.28035
192.92	2.18875
193.3	2.10528
193.68	2.17828
194.059	2.28193
194.439	2.21547
194.818	2.26887
195.198	2.21928
195.577	2.34216
195.957	2.42249
196.336	2.35416
196.715	2.38656
197.094	2.30928
197.474	2.37914
197.853	2.21553
198.232	2.3776
198.611	2.69559
198.99	2.69943
199.369	2.31966
199.748	2.51598
200.127	2.48645
200.506	2.53458
200.885	3.08693
201.264	3.05686
201.643	2.91074
202.022	2.43519
202.401	2.3856
202.779	2.2821
203.158	2.37044
203.537	2.18645
203.915	2.2498
204.294	2.21325
204.673	2.2214
205.051	2.07728
205.43	2.13141
205.808	2.28095
206.187	2.19798
206.565	2.05978
206.943	2.0194
207.322	2.11401
207.7	2.00276
208.078	1.99993
208.456	2.00713
208.835	1.93101
209.213	1.96168
209.591	1.98967
209.969	2.03725
210.347	2.06114
210.725	2.0459
211.103	2.01416
211.481	2.06172
211.859	1.95684
212.237	1.96051
212.614	2.04366
212.992	2.12682
213.37	2.11168
213.748	2.00668
214.125	2.0241
214.503	2.01766
214.881	2.06321
215.258	2.1556
215.636	2.67029
216.013	2.78237
216.391	3.17437
216.768	-0
217.145	-0
217.523	-0
217.9	-0
218.277	-0
218.655	-0
219.032	-0
219.409	-0
219.786	-0
220.163	-0
220.54	-0
220.917	-0
221.294	-0
221.671	-0
222.048	-0
222.425	-0
222.802	-0
223.179	-0
223.556	-0
223.932	-0
224.309	-0
224.686	-0
225.062	-0
225.439	-0
225.815	-0
226.192	-0
226.568	-0
226.945	-0
227.321	-0
227.698	-0
228.074	-0
228.45	-0
228.827	-0
229.203	-0
229.579	-0
229.955	-0
230.331	-0
230.707	-0
231.083	-0
231.46	-0
231.835	-0
232.211	-0
232.587	-0
232.963	2.99422
233.339	2.82714
233.715	3.16791
234.091	3.42991
234.466	2.79933
234.842	2.65407
235.218	-0
235.593	-0
235.969	-0
236.344	3.75678
236.72	3.23321
237.095	2.81286
237.471	2.58749
237.846	3.15254
238.222	-0
238.597	-0
238.972	-0
239.348	-0
239.723	3.76638
240.098	2.75346
240.473	3.30921
240.848	3.482
241.223	3.14745
241.598	2.89399
241.973	2.62476
242.348	2.56438
242.723	2.54203
243.098	2.35274
243.473	2.20626
243.848	2.12671
244.223	2.06379
244.597	2.03452
244.972	2.07404
245.347	2.10588
245.721	2.10941
246.096	2.02846
246.47	2.09448
246.845	2.09735
247.219	2.0662
247.594	2.06302
247.968	2.16556
248.343	2.08217
248.717	2.104
249.091	2.12526
249.466	2.15162
249.84	2.15565
250.214	2.11251
250.588	2.12334
250.962	2.10909
251.336	2.1818
251.71	2.26829
252.084	2.35517
252.458	2.53743
252.832	2.60707
253.206	2.55703
253.58	2.45398
253.954	2.61596
254.328	2.47228
254.702	2.40765
255.075	2.54265
255.449	2.65575
255.823	2.66144
256.196	3.97936
256.57	3.86606
256.943	3.32362
257.317	3.61983
257.69	3.25703
258.064	-0
258.437	-0
258.81	-0
259.184	-0
259.557	-0
259.93	-0
260.303	-0
260.677	3.80214
261.05	-0
261.423	-0
261.796	2.59415
262.169	2.40449
262.542	2.47832
262.915	2.4174
263.288	2.3809
263.661	2.32024
264.033	2.23647
264.406	2.14471
264.779	2.22508
265.152	2.26783
265.524	2.26519
265.897	2.19466
266.27	2.14335
266.642	2.12272
267.015	2.12894
267.387	2.22054
267.76	2.21645
268.132	2.15837
268.504	2.2423
268.877	2.21912
269.249	2.2746
269.621	2.41418
269.994	2.51971
270.366	2.72876
270.738	2.87697
271.11	2.97151
271.482	2.89048
271.854	2.91966
272.226	3.33194
272.598	2.62565
272.97	2.53874
273.342	2.59274
273.714	2.58089
274.086	2.77445
274.458	2.9135
274.829	2.75415
275.201	2.89815
275.573	3.00595
275.944	2.9701
276.316	2.80679
276.688	2.74414
277.059	2.79032
277.431	3.02016
277.802	3.61056
278.173	3.10685
278.545	3.09139
278.916	2.95852
279.287	2.94252
279.659	3.01141
280.03	3.091
280.401	3.6239
280.772	4.28152
281.143	4.23886
281.515	6.17511
281.886	3.95847
282.257	4.45063
282.628	4.14364
282.998	3.75051
283.369	3.76187
283.74	3.9254
284.111	3.94814
284.482	4.10035
284.853	4.24734
285.223	4.15014
285.594	4.05192
285.965	4.38372
286.335	4.41079
286.706	4.39234
287.076	4.58067
287.447	5.06669
287.817	-0
288.188	5.23172
288.558	5.23996
288.928	-0
289.299	5.1963
289.669	-0
290.039	5.16227
290.409	-0
290.779	-0
291.149	-0
291.52	-0
291.89	-0
292.26	-0
292.629	-0
292.999	-0
293.369	-0
293.739	-0
294.109	-0
294.479	-0
294.848	-0
295.218	-0
295.588	-0
295.957	-0
296.327	-0
296.696	-0
297.066	-0
297.435	-0
297.805	-0
298.174	-0
298.544	-0
298.913	-0
299.282	-0
299.651	-0
300.021	-0
300.39	-0
300.759	-0
301.128	-0
301.497	-0
301.866	-0
302.235	-0
302.604	-0
302.973	-0
303.342	-0
303.71	-0
304.079	-0
304.448	-0
304.817	-0
305.185	-0
305.554	-0
305.923	-0
306.291	-0
306.66	-0
307.028	-0
307.397	-0
307.765	-0
308.133	-0
308.502	-0
308.87	-0
309.238	-0
309.606	-0
309.975	-0
310.343	-0
310.711	-0
311.079	-0
311.447	-0
311.815	4.71013
312.183	5.39355
312.551	4.74728
312.919	5.19725
313.286	-0
313.654	-0
314.022	-0
314.39	-0
314.757	-0
315.125	-0
315.492	-0
315.86	-0
316.228	-0
316.595	-0
316.962	-0
317.33	-0
317.697	-0
318.065	-0
318.432	-0
318.799	-0
319.166	-0
319.534	-0
319.901	-0
320.268	-0
320.635	-0
321.002	-0
321.369	-0
321.736	-0
322.103	-0
322.47	-0
322.836	-0
323.203	-0
323.57	-0
323.937	-0
324.303	-0
324.67	-0
325.037	-0
325.403	-0
325.77	-0
326.136	-0
326.503	-0
326.869	-0
327.235	-0
327.602	-0
327.968	-0
328.334	-0
328.7	-0
329.067	-0
329.433	-0
329.799	-0
330.165	-0
330.531	-0
330.897	-0
331.263	-0
331.629	-0
331.995	-0
332.36	-0
332.726	-0
333.092	-0
333.458	-0
333.823	-0
334.189	-0
334.554	-0
334.92	-0
335.286	-0
335.651	-0
336.016	-0
336.382	-0
336.747	-0
337.113	-0
337.478	-0
337.843	4.77392
338.208	4.43087
338.573	4.66503
338.939	4.83274
339.304	5.27701
339.669	-0
340.034	5.32318
340.399	-0
340.764	-0
341.129	5.01212
341.493	5.16223
341.858	4.5869
342.223	4.61458
342.588	-0
342.952	-0
343.317	-0
343.682	-0
344.046	-0
344.411	-0
344.775	-0
345.14	-0
345.504	-0
345.869	-0
346.233	-0
346.597	-0
346.962	-0
347.326	-0
347.69	-0
348.054	-0
348.418	5.33971
348.782	-0
349.146	-0
349.51	-0
349.874	-0
350.238	-0
350.602	-0
350.966	-0
351.33	-0
351.693	5.24875
352.057	-0
352.421	-0
352.784	5.07151
353.148	5.20953
353.512	5.1095
353.875	4.91321
354.239	4.946
354.602	4.61774
354.966	4.60203
355.329	4.88271
355.692	4.87687
356.056	4.78317
356.419	4.44783
356.782	4.09464
357.145	4.1498
357.508	4.12134
357.871	4.28399
358.234	4.32439
358.597	4.53897
358.96	4.60515
359.323	4.54978
359.686	4.39305
360.049	4.54979
360.412	4.73034
360.775	4.43505
361.137	4.49583
361.5	4.44568
361.863	4.64413
362.225	4.90695
362.588	-0
362.951	4.98148
363.313	-0
363.675	-0
364.038	-0
364.4	-0
364.763	-0
365.125	-0
365.487	-0
365.849	-0
366.212	-0
366.574	-0
366.936	-0
367.298	-0
367.66	-0
368.022	-0
368.384	-0
368.746	-0
369.108	-0
369.469	-0
369.831	-0
370.193	-0
370.555	-0
370.916	-0
371.278	-0
371.64	-0
372.001	-0
372.363	-0
372.724	-0
373.086	-0
373.447	-0
373.808	-0
374.17	-0
374.531	-0
374.892	-0
375.253	-0
375.615	-0
375.976	-0
376.337	-0
376.698	-0
377.059	-0
377.42	-0
377.781	-0
378.141	-0
378.502	-0
378.863	-0
379.224	-0
379.585	-0
379.945	-0
380.306	-0
380.666	-0
381.027	-0
381.388	-0
381.748	-0
382.108	-0
382.469	-0
382.829	-0
383.19	-0
383.55	-0
383.91	-0
384.27	-0
384.63	-0
384.991	-0
385.351	-0
385.711	-0
386.071	-0
386.431	-0
386.791	-0
387.15	-0
387.51	4.90075
387.87	4.33593
388.23	4.45878
388.589	4.26088
388.949	4.38174
389.309	5.17357
389.668	-0
390.028	5.18523
390.387	4.93259
390.747	4.70614
391.106	4.68323
391.466	4.70615
391.825	5.23528
392.184	4.4655
392.544	4.24979
392.903	4.33595
393.262	4.42879
393.621	4.47923
393.98	4.47231
394.339	4.71406
394.698	4.4746
395.057	4.48155
395.416	4.75156
395.775	4.50558
396.134	-0
396.493	-0
396.852	6.07378
397.211	4.88865
397.569	4.93258
397.928	-0
398.287	-0
398.645	4.68695
399.004	4.53365
399.362	4.30371
399.721	4.50806
400.079	4.41452
400.438	4.32113
400.796	4.19207
401.154	4.11324
401.512	4.10432
401.871	4.11625
402.229	4.12543
402.587	4.14329
402.945	4.12031
403.303	4.22705
403.661	4.09176
404.019	3.97469
404.377	3.90928
404.735	3.96818
405.093	4.11124
405.451	3.96391
405.808	3.90307
406.166	3.97761
406.524	4.00482
406.882	3.96675
407.239	3.91053
407.597	4.00404
407.954	4.12234
408.312	4.0731
408.669	4.11123
409.027	4.3006
409.384	4.22059
409.741	4.36352
410.099	4.25527
410.456	4.24702
410.813	4.13902
411.17	4.19568
411.527	4.26511
411.884	4.40265
412.242	4.43925
412.599	4.07401
412.956	4.09175
413.312	4.05086
413.669	3.95339
414.026	3.99025
414.383	3.98724
414.74	4.09654
415.096	4.10139
415.453	3.97688
415.81	4.04313
416.166	4.06318
416.523	4.09272
416.879	4.11727
417.236	4.04484
417.592	4.21551
417.949	4.01831
418.305	4.05087
418.661	4.06587
419.018	4.00173
419.374	3.97398
419.73	3.979
420.086	4.1785
420.442	4.4526
420.798	4.64065
421.154	-0
421.51	-0
421.866	-0
422.222	-0
422.578	-0
422.934	-0
423.29	-0
423.646	-0
424.001	-0
424.357	-0
424.713	-0
425.068	-0
425.424	-0
425.779	-0
426.135	-0
426.49	-0
426.845	-0
427.201	-0
427.556	-0
427.911	-0
428.266	-0
428.622	-0
428.977	-0
429.332	-0
429.687	-0
430.042	-0
430.397	-0
430.752	-0
431.107	-0
431.461	-0
431.816	-0
432.171	-0
432.526	-0
432.88	-0
433.235	-0
433.59	-0
433.944	-0
434.299	-0
434.653	-0
435.008	-0
435.362	-0
435.716	-0
436.071	-0
436.425	-0
436.779	-0
437.133	-0
437.487	-0
437.841	-0
438.195	-0
438.549	-0
438.903	-0
439.257	-0
439.611	-0
439.965	-0
440.319	-0
440.673	-0
441.026	-0
441.38	-0
441.734	-0
442.087	-0
442.441	-0
442.794	-0
443.148	-0
443.501	-0
443.855	-0
444.208	-0
444.561	-0
444.915	-0
445.268	-0
445.621	-0
445.974	-0
446.327	6.14671
446.68	-0
447.033	-0
447.386	4.77051
447.739	4.27
448.092	4.24035
448.445	4.29118
448.798	4.2576
449.15	3.97177
449.503	3.77048
449.856	3.69923
450.209	3.69559
450.561	3.74023
450.914	4.0839
451.266	4.48656
451.619	5.1458
451.971	4.1507
452.323	4.1091
452.676	4.29242
453.028	4.32774
453.38	4.11249
453.733	4.23297
454.085	3.99754
454.437	4.44852
454.789	4.16195
455.141	4.48845
455.493	4.23174
455.845	4.34717
456.197	4.38683
456.549	5.60858
456.901	-0
457.253	-0
457.604	-0
457.956	-0
458.308	-0
458.659	5.54214
459.011	-0
459.362	4.90159
459.714	4.3469
460.065	4.14745
460.417	4.60282
460.768	4.54705
461.12	-0
461.471	-0
461.822	-0
462.173	-0
462.525	-0
462.876	-0
463.227	-0
463.578	-0
463.929	-0
464.28	-0
464.631	-0
464.982	-0
465.332	-0
465.683	-0
466.034	-0
466.385	-0
466.735	-0
467.086	-0
467.437	-0
467.787	-0
468.138	-0
468.488	-0
468.839	-0
469.189	-0
469.539	-0
469.89	-0
470.24	-0
470.59	-0
470.94	-0
471.29	-0
471.64	-0
471.99	-0
472.34	-0
472.69	-0
473.04	-0
473.39	-0
473.74	5.30221
474.09	4.72892
474.439	4.21003
474.789	4.21525
475.139	4.2831
475.488	-0
475.838	4.30348
476.188	4.26871
476.537	3.98608
476.886	4.4527
477.236	-0
477.585	-0
477.935	-0
478.284	5.18239
478.633	4.77579
478.982	4.87463
479.331	5.65889
479.68	-0
480.03	-0
480.379	-0
480.728	4.72585
481.076	4.26837
481.425	4.33373
481.774	4.02621
482.123	3.92579
482.472	3.84868
482.821	3.76498
483.169	3.78464
483.518	3.84916
483.866	4.12014
484.215	3.93172
484.563	3.83606
484.912	3.92588
485.26	3.87561
485.609	3.86135
485.957	3.82547
486.305	3.80325
486.654	3.84065
487.002	3.83132
487.35	4.03529
487.698	4.14005
488.046	-0
488.394	-0
488.742	5.98353
489.09	-0
489.438	-0
489.786	-0
490.134	-0
490.482	-0
490.829	-0
491.177	-0
491.525	-0
491.872	-0
492.22	-0
492.567	-0
492.915	-0
493.262	-0
493.61	-0
493.957	4.60805
494.304	4.372
494.652	4.20993
494.999	4.31555
495.346	4.16488
495.693	4.14575
496.04	4.36815
496.387	4.49521
496.734	4.39739
497.081	4.59239
497.428	4.43848
497.775	4.06265
498.122	4.03853
498.469	3.95264
498.816	3.86673
499.162	3.92198
499.509	3.92046
499.856	3.95225
500.202	4.16219
500.549	4.53847
500.895	4.88032
501.242	4.99483
501.588	-0
501.935	4.75761
502.281	4.55145
502.627	4.32445
502.973	4.36203
503.32	4.3423
503.666	4.27887
504.012	4.05419
504.358	4.03481
504.704	4.16666
505.05	4.06552
505.396	4.05517
505.742	4.02421
506.088	3.98764
506.433	4.06463
506.779	4.20182
507.125	4.00019
507.471	3.82635
507.816	3.77325
508.162	3.86823
508.507	3.97478
508.853	3.9156
509.198	3.92795
509.544	3.96014
509.889	3.90291
510.234	3.95087
510.58	4.04983
510.925	4.16259
511.27	4.3923
511.615	4.39208
511.96	4.31813
512.306	-0
512.651	-0
512.996	-0
513.341	-0
513.685	-0
514.03	-0
514.375	-0
514.72	-0
515.065	-0
515.409	-0
515.754	-0
516.099	-0
516.443	-0
516.788	-0
517.132	-0
517.476	-0
517.821	-0
518.165	-0
518.51	-0
518.854	-0
519.198	-0
519.542	-0
519.886	-0
520.23	-0
520.574	-0
520.918	-0
521.262	-0
521.606	-0
521.95	-0
522.294	-0
522.638	-0
522.981	-0
523.325	-0
523.669	-0
524.012	-0
524.356	-0
524.699	-0
525.043	-0
525.386	-0
525.73	-0
526.073	4.65844
526.416	5.58598
526.76	-0
527.103	-0
527.446	-0
527.789	-0
528.132	-0
528.475	-0
528.818	-0
529.161	5.31896
529.504	4.50792
529.847	-0
530.19	-0
530.532	-0
530.875	-0
531.218	5.66311
531.56	4.77139
531.903	4.33288
532.246	5.11695
532.588	5.75151
532.93	4.84967
533.273	-0
533.615	4.67637
533.958	4.85462
534.3	5.13816
534.642	5.18914
534.984	-0
535.326	4.76673
535.669	4.32409
536.011	4.28918
536.353	4.56148
536.695	4.65062
537.037	4.23949
537.378	4.46074
537.72	4.43487
538.062	4.58096
538.404	-0
538.746	-0
539.087	-0
539.429	-0
539.77	-0
540.112	-0
540.454	-0
540.795	-0
541.136	-0
541.478	-0
541.819	-0
542.16	-0
542.502	-0
542.843	-0
543.184	-0
543.525	-0
543.866	-0
544.207	-0
544.548	-0
544.889	-0
545.23	-0
545.571	5.47136
545.911	5.63693
546.252	4.58993
546.593	4.49548
546.934	4.47252
547.274	4.21781
547.615	4.28792
547.955	4.23668
548.296	4.48097
548.636	4.3361
548.977	4.97161
549.317	-0
549.657	4.99001
549.997	-0
550.338	-0
550.678	-0
551.018	-0
551.358	-0
551.698	-0
552.038	-0
552.378	-0
552.718	-0
553.058	-0
553.398	-0
553.737	-0
554.077	-0
554.417	-0
554.756	-0
555.096	-0
555.435	-0
555.775	-0
556.114	5.30882
556.454	4.68242
556.793	4.60133
557.133	4.40976
557.472	4.11308
557.811	4.01386
558.15	4.01963
558.489	4.14898
558.829	4.11335
559.168	4.15153
559.507	4.37474
559.846	4.05743
560.184	4.0718
560.523	4.22325
560.862	4.34567
561.201	4.31367
561.54	4.29912
561.878	4.58158
562.217	4.88124
562.556	4.63951
562.894	4.60138
563.233	4.78066
563.571	5.67851
563.91	-0
564.248	-0
564.586	-0
564.925	-0
565.263	-0
565.601	-0
565.939	5.64666
566.277	5.88827
566.616	4.83334
566.954	-0
567.292	-0
567.63	5.1558
567.967	4.56123
568.305	4.58667
568.643	5.10261
568.981	5.13572
569.319	4.57626
569.656	4.8636
569.994	4.64785
570.331	4.36179
570.669	4.4379
571.006	4.26448
571.344	4.55619
571.681	4.81666
572.019	4.46787
572.356	4.42111
572.693	4.43238
573.03	5.19021
573.368	-0
573.705	-0
574.042	4.57789
574.379	4.734
574.716	4.78512
575.053	-0
575.39	4.7858
575.727	4.72256
576.063	4.35492
576.4	4.42369
576.737	4.36087
577.074	4.29169
577.41	4.55445
577.747	4.39388
578.083	4.33674
578.42	4.30517
578.756	4.27424
579.093	4.35303
579.429	4.71632
579.766	4.72905
580.102	4.65841
580.438	4.44274
580.774	4.42118
581.11	5.05767
581.446	4.50934
581.782	4.72472
582.119	-0
582.454	-0
582.79	-0
583.126	-0
583.462	-0
583.798	-0
584.134	5.90653
584.469	-0
584.805	-0
585.141	-0
585.476	4.6219
585.812	4.79655
586.147	4.60507
586.482	4.52558
586.818	4.41251
587.153	4.51709
587.488	4.49628
587.824	4.75686
588.159	4.86546
588.494	-0
588.829	-0
589.164	-0
589.499	-0
589.834	-0
590.169	-0
590.504	-0
590.839	-0
591.174	-0
591.508	-0
591.843	-0
592.178	-0
592.512	-0
592.847	-0
593.181	-0
593.516	-0
593.85	-0
594.185	-0
594.519	-0
594.853	5.15064
595.187	4.62772
595.522	4.46276
595.856	4.36356
596.19	4.28427
596.524	4.26701
596.858	4.34416
597.192	4.30925
597.526	4.21233
597.86	4.23114
598.194	4.09545
598.527	4.00767
598.861	4.10519
599.195	4.23701
599.528	4.12933
599.862	4.24932
600.196	4.0908
600.529	4.07071
600.863	4.17753
601.196	4.36098
601.529	4.45542
601.863	4.93123
602.196	-0
602.529	5.29412
602.862	-0
603.196	-0
603.529	4.80846
603.862	-0
604.195	-0
604.528	-0
604.861	-0
605.193	-0
605.526	-0
605.859	-0
606.192	-0
606.524	-0
606.857	-0
607.19	-0
607.522	-0
607.855	-0
608.187	-0
608.52	-0
608.852	-0
609.184	-0
609.517	6.84347
609.849	-0
610.181	-0
610.513	-0
610.845	-0
611.177	-0
611.509	-0
611.841	5.72946
612.173	-0
612.505	4.91414
612.837	4.5262
613.169	4.39697
613.5	4.3177
613.832	4.15674
614.164	4.27824
614.495	4.27994
614.827	4.251
615.158	4.31988
615.49	4.50501
615.821	4.48441
616.152	4.49221
616.484	4.5965
616.815	4.33989
617.146	4.33827
617.477	4.49524
617.808	4.13708
618.14	4.2045
618.471	4.19933
618.802	4.43302
619.133	4.48283
619.463	5.30956
619.794	-0
620.125	-0
620.456	-0
620.787	-0
621.117	-0
621.448	-0
621.778	-0
622.109	-0
622.439	-0
622.77	-0
623.1	-0
623.43	-0
623.761	-0
624.091	-0
624.421	-0
624.751	-0
625.081	-0
625.412	-0
625.742	5.11322
626.072	5.04473
626.401	4.53723
626.731	4.58846
627.061	4.93408
627.391	6.04839
627.721	6.28615
628.05	-0
628.38	-0
628.71	-0
629.039	-0
629.369	-0
629.698	-0
630.028	-0
630.357	-0
630.686	-0
631.015	-0
631.345	-0
631.674	-0
632.003	-0
632.332	-0
632.661	-0
632.99	-0
633.319	-0
633.648	-0
633.977	-0
634.306	-0
634.634	-0
634.963	-0
635.292	-0
635.62	-0
635.949	-0
636.277	-0
636.606	-0
636.934	-0
637.263	-0
637.591	-0
637.919	-0
638.248	-0
638.576	6.15864
638.904	4.57491
639.232	4.46574
639.56	4.4404
639.888	4.52837
640.216	5.28837
640.544	4.66784
640.872	4.68277
641.2	4.78744
641.528	-0
641.855	-0
642.183	-0
642.511	-0
642.838	-0
643.166	-0
643.493	-0
643.821	-0
644.148	-0
644.475	-0
644.803	-0
645.13	-0
645.457	-0
645.784	-0
646.112	-0
646.439	-0
646.766	-0
647.093	-0
647.42	-0
647.746	-0
648.073	-0
648.4	-0
648.727	5.07852
649.053	-0
649.38	-0
649.707	-0
650.033	-0
650.36	-0
650.686	-0
651.013	-0
651.339	-0
651.665	-0
651.992	-0
652.318	-0
652.644	-0
652.97	-0
653.296	-0
653.622	-0
653.948	-0
654.274	-0
654.6	-0
654.926	-0
655.252	-0
655.578	-0
655.903	-0
656.229	4.80107
656.555	-0
656.88	-0
657.206	-0
657.531	-0
657.857	-0
658.182	-0
658.507	-0
658.833	-0
659.158	-0
659.483	-0
659.808	-0
660.133	-0
660.458	-0
660.783	-0
661.108	-0
661.433	-0
661.758	-0
662.083	-0
662.408	-0
662.732	-0
663.057	-0
663.382	-0
663.706	-0
664.031	-0
664.355	-0
664.68	-0
665.004	-0
665.328	-0
665.653	-0
665.977	-0
666.301	-0
666.625	-0
666.949	-0
667.273	-0
667.597	5.15838
