Data from AgNP_532nm_50mJ_45minLase_30minWait_Absorbance_15-51-40-569.txt Node
Date: Mon Jan 23 15:51:40 EST 2023
User: UV-vis
Spectrometer: FLMS04918
Trigger mode: 0
Integration Time (sec): 1.002000E-2
Scans to average: 10
Electric dark correction enabled: true
Nonlinearity correction enabled: false
Boxcar width: 10
XAxis mode: Wavelengths
Number of Pixels in Spectrum: 2048
>>>>>Begin Spectral Data<<<<<
179.23	-0.28088
179.611	-0.05236
179.992	-0.08082
180.373	-0.10312
180.754	-0.15038
181.134	-0.31854
181.515	-0.35444
181.896	-0.37337
182.276	-0.27306
182.657	-0.48536
183.038	-0.44173
183.418	-0.55468
183.799	-0
184.179	0.10844
184.56	0.09082
184.94	0.08139
185.32	0.083
185.701	0.08615
186.081	0.08439
186.461	0.08191
186.842	0.08099
187.222	0.08123
187.602	0.08316
187.982	0.08306
188.362	0.0825
188.742	0.08241
189.122	0.08174
189.502	0.08213
189.882	0.08224
190.262	0.08362
190.642	0.08309
191.022	0.08346
191.402	0.08339
191.781	0.08376
192.161	0.08354
192.541	0.08352
192.92	0.08419
193.3	0.08445
193.68	0.08402
194.059	0.08452
194.439	0.08587
194.818	0.08627
195.198	0.08702
195.577	0.08735
195.957	0.08725
196.336	0.08757
196.715	0.08818
197.094	0.08819
197.474	0.08771
197.853	0.08873
198.232	0.08782
198.611	0.08796
198.99	0.08779
199.369	0.08861
199.748	0.0878
200.127	0.08804
200.506	0.08859
200.885	0.08825
201.264	0.08811
201.643	0.08833
202.022	0.08886
202.401	0.08864
202.779	0.08863
203.158	0.08775
203.537	0.08751
203.915	0.08784
204.294	0.08808
204.673	0.08774
205.051	0.0878
205.43	0.08876
205.808	0.08855
206.187	0.08869
206.565	0.08941
206.943	0.08966
207.322	0.08901
207.7	0.08984
208.078	0.09009
208.456	0.0895
208.835	0.09069
209.213	0.09055
209.591	0.09152
209.969	0.09157
210.347	0.09157
210.725	0.09185
211.103	0.09236
211.481	0.09254
211.859	0.0925
212.237	0.09253
212.614	0.09295
212.992	0.09331
213.37	0.09323
213.748	0.09289
214.125	0.09324
214.503	0.09208
214.881	0.09266
215.258	0.09291
215.636	0.0933
216.013	0.09382
216.391	0.09449
216.768	0.09436
217.145	0.09487
217.523	0.09433
217.9	0.09459
218.277	0.09457
218.655	0.0951
219.032	0.0952
219.409	0.0963
219.786	0.09733
220.163	0.09815
220.54	0.09845
220.917	0.09836
221.294	0.09848
221.671	0.09862
222.048	0.09953
222.425	0.10044
222.802	0.10042
223.179	0.10135
223.556	0.10158
223.932	0.10117
224.309	0.10078
224.686	0.10043
225.062	0.10069
225.439	0.10104
225.815	0.1008
226.192	0.10124
226.568	0.1007
226.945	0.10083
227.321	0.10026
227.698	0.09985
228.074	0.09942
228.45	0.09915
228.827	0.09956
229.203	0.0995
229.579	0.0997
229.955	0.09983
230.331	0.09996
230.707	0.10007
231.083	0.09931
231.46	0.09884
231.835	0.09981
232.211	0.09969
232.587	0.09938
232.963	0.09952
233.339	0.09985
233.715	0.09978
234.091	0.09956
234.466	0.1002
234.842	0.10062
235.218	0.10108
235.593	0.10089
235.969	0.10088
236.344	0.10035
236.72	0.10093
237.095	0.102
237.471	0.10229
237.846	0.10233
238.222	0.10269
238.597	0.10269
238.972	0.10416
239.348	0.10496
239.723	0.10464
240.098	0.1056
240.473	0.10636
240.848	0.10662
241.223	0.10664
241.598	0.10673
241.973	0.10758
242.348	0.10847
242.723	0.10863
243.098	0.10842
243.473	0.10867
243.848	0.1092
244.223	0.10995
244.597	0.10979
244.972	0.10887
245.347	0.10995
245.721	0.10999
246.096	0.11028
246.47	0.11081
246.845	0.11072
247.219	0.11093
247.594	0.11086
247.968	0.11129
248.343	0.11197
248.717	0.11239
249.091	0.1136
249.466	0.1145
249.84	0.11489
250.214	0.11467
250.588	0.1155
250.962	0.11657
251.336	0.11725
251.71	0.11751
252.084	0.11866
252.458	0.1191
252.832	0.11994
253.206	0.11964
253.58	0.12044
253.954	0.12068
254.328	0.12142
254.702	0.12196
255.075	0.12241
255.449	0.12336
255.823	0.12393
256.196	0.12443
256.57	0.12462
256.943	0.12484
257.317	0.12546
257.69	0.12567
258.064	0.12618
258.437	0.12625
258.81	0.12627
259.184	0.12675
259.557	0.12729
259.93	0.12713
260.303	0.12824
260.677	0.12888
261.05	0.12961
261.423	0.12968
261.796	0.13022
262.169	0.13049
262.542	0.13118
262.915	0.13187
263.288	0.13226
263.661	0.1328
264.033	0.13339
264.406	0.13408
264.779	0.13472
265.152	0.135
265.524	0.13579
265.897	0.13638
266.27	0.13702
266.642	0.13756
267.015	0.13836
267.387	0.13912
267.76	0.14016
268.132	0.14051
268.504	0.14088
268.877	0.14112
269.249	0.14227
269.621	0.14336
269.994	0.1444
270.366	0.14522
270.738	0.14563
271.11	0.14671
271.482	0.14733
271.854	0.14805
272.226	0.1492
272.598	0.14933
272.97	0.15075
273.342	0.1521
273.714	0.1529
274.086	0.15363
274.458	0.15468
274.829	0.15605
275.201	0.15769
275.573	0.15927
275.944	0.16069
276.316	0.16236
276.688	0.1646
277.059	0.16661
277.431	0.16979
277.802	0.17382
278.173	0.17984
278.545	0.18917
278.916	0.20148
279.287	0.21641
279.659	0.23196
280.03	0.24112
280.401	0.23342
280.772	0.20702
281.143	0.17565
281.515	0.14654
281.886	0.12474
282.257	0.10775
282.628	0.09405
282.998	0.08278
283.369	0.07332
283.74	0.06531
284.111	0.0584
284.482	0.05231
284.853	0.04691
285.223	0.04194
285.594	0.0373
285.965	0.03271
286.335	0.02785
286.706	0.02235
287.076	0.01575
287.447	0.00752
287.817	-0.00192
288.188	-0.01008
288.558	-0.01453
288.928	-0.01623
289.299	-0.01623
289.669	-0.01623
290.039	-0.01623
290.409	-0.01623
290.779	-0.01623
291.149	-0.01623
291.52	-0.01623
291.89	-0.01623
292.26	-0.01623
292.629	-0.01623
292.999	-0.01623
293.369	-0.01623
293.739	-0.01623
294.109	-0.01623
294.479	-0.01623
294.848	-0.01623
295.218	-0.01623
295.588	-0.01623
295.957	-0.01623
296.327	-0.01623
296.696	-0.01623
297.066	-0.01623
297.435	-0.01623
297.805	-0.01623
298.174	-0.01623
298.544	-0.01623
298.913	-0.01623
299.282	-0.01623
299.651	-0.01623
300.021	-0.01623
300.39	-0.01623
300.759	-0.01623
301.128	-0.01623
301.497	-0.01623
301.866	-0.01623
302.235	-0.01623
302.604	-0.01623
302.973	-0.01623
303.342	-0.01623
303.71	-0.01623
304.079	-0.01623
304.448	-0.01623
304.817	-0.01623
305.185	-0.01623
305.554	-0.01623
305.923	-0.01623
306.291	-0.01623
306.66	-0.01623
307.028	-0.01623
307.397	-0.01623
307.765	-0.01623
308.133	-0.01623
308.502	-0.01623
308.87	-0.01623
309.238	-0.01623
309.606	-0.01623
309.975	-0.01623
310.343	-0.01623
310.711	-0.01623
311.079	-0.01623
311.447	-0.01623
311.815	-0.01623
312.183	-0.01623
312.551	-0.01623
312.919	-0.01623
313.286	-0.01623
313.654	-0.01623
314.022	-0.01623
314.39	-0.01623
314.757	-0.01623
315.125	-0.01623
315.492	-0.01623
315.86	-0.01623
316.228	-0.01623
316.595	-0.01623
316.962	-0.01623
317.33	-0.01623
317.697	-0.01623
318.065	-0.01623
318.432	-0.01623
318.799	-0.01623
319.166	-0.01623
319.534	-0.01623
319.901	-0.01623
320.268	-0.01623
320.635	-0.01623
321.002	-0.01623
321.369	-0.01623
321.736	-0.01623
322.103	-0.01623
322.47	-0.01623
322.836	-0.01623
323.203	-0.01623
323.57	-0.01623
323.937	-0.01623
324.303	-0.01623
324.67	-0.01623
325.037	-0.01623
325.403	-0.01623
325.77	-0.01623
326.136	-0.01623
326.503	-0.01623
326.869	-0.01623
327.235	-0.01623
327.602	-0.01623
327.968	-0.01623
328.334	-0.01623
328.7	-0.01623
329.067	-0.01623
329.433	-0.01623
329.799	-0.01623
330.165	-0.01623
330.531	-0.01623
330.897	-0.01623
331.263	-0.01623
331.629	-0.01623
331.995	-0.01623
332.36	-0.01623
332.726	-0.01623
333.092	-0.01623
333.458	-0.01623
333.823	-0.01623
334.189	-0.01623
334.554	-0.01623
334.92	-0.01623
335.286	-0.01623
335.651	-0.01623
336.016	-0.01623
336.382	-0.01623
336.747	-0.01623
337.113	-0.01623
337.478	-0.01623
337.843	-0.01623
338.208	-0.01623
338.573	-0.01623
338.939	-0.01623
339.304	-0.01623
339.669	-0.01623
340.034	-0.01623
340.399	-0.01623
340.764	-0.01623
341.129	-0.01623
341.493	-0.01623
341.858	-0.01623
342.223	-0.01623
342.588	-0.01623
342.952	-0.01623
343.317	-0.01623
343.682	-0.01623
344.046	-0.01623
344.411	-0.01623
344.775	-0.01623
345.14	-0.01623
345.504	-0.01623
345.869	-0.01623
346.233	-0.01623
346.597	-0.01623
346.962	-0.01623
347.326	-0.01623
347.69	-0.01623
348.054	-0.01623
348.418	-0.01623
348.782	-0.01623
349.146	-0.01623
349.51	-0.01623
349.874	-0.01623
350.238	-0.01623
350.602	-0.01623
350.966	-0.01623
351.33	-0.01623
351.693	-0.01623
352.057	-0.01623
352.421	-0.01623
352.784	-0.01623
353.148	-0.01623
353.512	-0.01623
353.875	-0.01623
354.239	-0.01623
354.602	-0.01623
354.966	-0.01623
355.329	-0.01623
355.692	-0.01623
356.056	-0.01623
356.419	-0.01623
356.782	-0.01623
357.145	-0.01623
357.508	-0.01623
357.871	-0.01623
358.234	-0.01623
358.597	-0.01623
358.96	-0.01623
359.323	-0.01623
359.686	-0.01623
360.049	-0.01623
360.412	-0.01623
360.775	-0.01623
361.137	-0.01623
361.5	-0.01623
361.863	-0.01623
362.225	-0.01623
362.588	-0.01623
362.951	-0.01623
363.313	-0.01623
363.675	-0.01623
364.038	-0.01623
364.4	-0.01623
364.763	-0.01623
365.125	-0.01623
365.487	-0.01623
365.849	-0.01623
366.212	-0.01623
366.574	-0.01623
366.936	-0.01623
367.298	-0.01623
367.66	-0.01623
368.022	-0.01623
368.384	-0.01623
368.746	-0.01623
369.108	-0.01623
369.469	-0.01623
369.831	-0.01623
370.193	-0.01623
370.555	-0.01623
370.916	-0.01623
371.278	-0.01623
371.64	-0.01623
372.001	-0.01623
372.363	-0.01623
372.724	-0.01623
373.086	-0.01623
373.447	-0.01623
373.808	-0.01623
374.17	-0.01623
374.531	-0.01623
374.892	-0.01623
375.253	-0.01623
375.615	-0.01623
375.976	-0.01623
376.337	-0.01623
376.698	-0.01623
377.059	-0.01623
377.42	-0.01623
377.781	-0.01623
378.141	-0.01623
378.502	-0.01623
378.863	-0.01623
379.224	-0.01623
379.585	-0.01623
379.945	-0.01623
380.306	-0.01623
380.666	-0.01623
381.027	-0.01623
381.388	-0.01623
381.748	-0.01623
382.108	-0.01623
382.469	-0.01623
382.829	-0.01623
383.19	-0.01623
383.55	-0.01623
383.91	-0.01623
384.27	-0.01623
384.63	-0.01623
384.991	-0.01623
385.351	-0.01623
385.711	-0.01623
386.071	-0.01623
386.431	-0.01623
386.791	-0.01623
387.15	-0.01623
387.51	-0.01623
387.87	-0.01623
388.23	-0.01623
388.589	-0.01623
388.949	-0.01623
389.309	-0.01623
389.668	-0.01623
390.028	-0.01623
390.387	-0.01623
390.747	-0.01623
391.106	-0.01623
391.466	-0.01623
391.825	-0.01623
392.184	-0.01623
392.544	-0.01623
392.903	-0.01623
393.262	-0.01623
393.621	-0.01623
393.98	-0.01623
394.339	-0.01623
394.698	-0.01623
395.057	-0.01623
395.416	-0.01623
395.775	-0.01623
396.134	-0.01623
396.493	-0.01623
396.852	-0.01623
397.211	-0.01623
397.569	-0.01623
397.928	-0.01623
398.287	-0.01623
398.645	-0.01623
399.004	-0.01623
399.362	-0.01623
399.721	-0.01623
400.079	-0.01623
400.438	-0.01623
400.796	-0.01623
401.154	-0.01623
401.512	-0.01623
401.871	-0.01623
402.229	-0.01623
402.587	-0.01623
402.945	-0.01623
403.303	-0.01623
403.661	-0.01623
404.019	-0.01623
404.377	-0.01623
404.735	-0.01623
405.093	-0.01623
405.451	-0.01623
405.808	-0.01623
406.166	-0.01623
406.524	-0.01623
406.882	-0.01623
407.239	-0.01623
407.597	-0.01623
407.954	-0.01623
408.312	-0.01623
408.669	-0.01623
409.027	-0.01623
409.384	-0.01623
409.741	-0.01623
410.099	-0.01623
410.456	-0.01623
410.813	-0.01623
411.17	-0.01623
411.527	-0.01623
411.884	-0.01623
412.242	-0.01623
412.599	-0.01623
412.956	-0.01623
413.312	-0.01623
413.669	-0.01623
414.026	-0.01623
414.383	-0.01623
414.74	-0.01623
415.096	-0.01623
415.453	-0.01623
415.81	-0.01623
416.166	-0.01623
416.523	-0.01623
416.879	-0.01623
417.236	-0.01623
417.592	-0.01623
417.949	-0.01623
418.305	-0.01623
418.661	-0.01623
419.018	-0.01623
419.374	-0.01623
419.73	-0.01623
420.086	-0.01623
420.442	-0.01623
420.798	-0.01623
421.154	-0.01623
421.51	-0.01623
421.866	-0.01623
422.222	-0.01623
422.578	-0.01623
422.934	-0.01623
423.29	-0.01623
423.646	-0.01623
424.001	-0.01623
424.357	-0.01621
424.713	-0.01604
425.068	-0.01574
425.424	-0.01535
425.779	-0.01499
426.135	-0.01488
426.49	-0.01487
426.845	-0.01472
427.201	-0.01457
427.556	-0.01406
427.911	-0.01348
428.266	-0.0126
428.622	-0.01166
428.977	-0.01073
429.332	-0.01012
429.687	-0.00969
430.042	-0.00969
430.397	-0.00969
430.752	-0.00951
431.107	-0.0094
431.461	-0.0094
431.816	-0.00939
432.171	-0.00956
432.526	-0.00987
432.88	-0.01024
433.235	-0.0104
433.59	-0.01037
433.944	-0.01
434.299	-0.00954
434.653	-0.00886
435.008	-0.00849
435.362	-0.00786
435.716	-0.00732
436.071	-0.00653
436.425	-0.00544
436.779	-0.00404
437.133	-0.00219
437.487	0.00007
437.841	0.00247
438.195	0.00471
438.549	0.00706
438.903	0.00956
439.257	0.01213
439.611	0.01471
439.965	0.01728
440.319	0.01989
440.673	0.02229
441.026	0.02482
441.38	0.02708
441.734	0.02897
442.087	0.03067
442.441	0.03221
442.794	0.03334
443.148	0.0342
443.501	0.03471
443.855	0.03472
444.208	0.03449
444.561	0.03371
444.915	0.03276
445.268	0.03171
445.621	0.03051
445.974	0.02921
446.327	0.02766
446.68	0.02588
447.033	0.02402
447.386	0.0223
447.739	0.02045
448.092	0.01868
448.445	0.01675
448.798	0.01489
449.15	0.01323
449.503	0.01154
449.856	0.00983
450.209	0.00831
450.561	0.00684
450.914	0.00533
451.266	0.00409
451.619	0.0031
451.971	0.00246
452.323	0.00194
452.676	0.00141
453.028	0.00114
453.38	0.00085
453.733	0.00067
454.085	0.0006
454.437	0.00105
454.789	0.00122
455.141	0.00144
455.493	0.00173
455.845	0.002
456.197	0.00227
456.549	0.00267
456.901	0.00294
457.253	0.00332
457.604	0.00362
457.956	0.00399
458.308	0.00433
458.659	0.00474
459.011	0.00498
459.362	0.00519
459.714	0.0055
460.065	0.00578
460.417	0.00593
460.768	0.00618
461.12	0.00636
461.471	0.00666
461.822	0.00654
462.173	0.00667
462.525	0.00659
462.876	0.00649
463.227	0.0066
463.578	0.00663
463.929	0.00659
464.28	0.00664
464.631	0.00652
464.982	0.00638
465.332	0.00625
465.683	0.0061
466.034	0.00583
466.385	0.00559
466.735	0.00532
467.086	0.00496
467.437	0.00467
467.787	0.00423
468.138	0.00375
468.488	0.00342
468.839	0.00314
469.189	0.00267
469.539	0.00209
469.89	0.00178
470.24	0.00128
470.59	0.00073
470.94	0.00018
471.29	-0.00069
471.64	-0.00144
471.99	-0.00217
472.34	-0.00309
472.69	-0.00405
473.04	-0.00494
473.39	-0.0059
473.74	-0.00674
474.09	-0.00761
474.439	-0.00845
474.789	-0.00932
475.139	-0.01008
475.488	-0.01077
475.838	-0.01147
476.188	-0.0123
476.537	-0.01291
476.886	-0.01348
477.236	-0.01405
477.585	-0.01452
477.935	-0.01501
478.284	-0.01543
478.633	-0.01566
478.982	-0.01598
479.331	-0.01613
479.68	-0.01614
480.03	-0.01619
480.379	-0.01622
480.728	-0.01623
481.076	-0.01623
481.425	-0.01623
481.774	-0.01623
482.123	-0.01623
482.472	-0.01623
482.821	-0.01623
483.169	-0.01623
483.518	-0.01623
483.866	-0.01623
484.215	-0.01623
484.563	-0.01623
484.912	-0.01623
485.26	-0.01623
485.609	-0.01623
485.957	-0.01623
486.305	-0.01623
486.654	-0.01623
487.002	-0.01623
487.35	-0.01623
487.698	-0.01623
488.046	-0.01623
488.394	-0.01623
488.742	-0.01623
489.09	-0.01623
489.438	-0.01623
489.786	-0.01623
490.134	-0.01623
490.482	-0.01623
490.829	-0.01623
491.177	-0.01623
491.525	-0.01623
491.872	-0.01623
492.22	-0.01623
492.567	-0.01623
492.915	-0.01623
493.262	-0.01623
493.61	-0.01623
493.957	-0.01623
494.304	-0.01623
494.652	-0.01623
494.999	-0.01623
495.346	-0.01623
495.693	-0.01623
496.04	-0.01623
496.387	-0.01623
496.734	-0.01623
497.081	-0.01623
497.428	-0.01623
497.775	-0.01623
498.122	-0.01623
498.469	-0.01623
498.816	-0.01623
499.162	-0.01623
499.509	-0.01623
499.856	-0.01623
500.202	-0.01623
500.549	-0.01623
500.895	-0.01623
501.242	-0.01623
501.588	-0.01623
501.935	-0.01623
502.281	-0.01623
502.627	-0.01623
502.973	-0.01623
503.32	-0.01623
503.666	-0.01623
504.012	-0.01623
504.358	-0.01623
504.704	-0.01623
505.05	-0.01623
505.396	-0.01623
505.742	-0.01623
506.088	-0.01623
506.433	-0.01623
506.779	-0.01623
507.125	-0.01623
507.471	-0.01623
507.816	-0.01623
508.162	-0.01623
508.507	-0.01623
508.853	-0.01623
509.198	-0.01623
509.544	-0.01623
509.889	-0.01623
510.234	-0.01623
510.58	-0.01623
510.925	-0.01623
511.27	-0.01623
511.615	-0.01623
511.96	-0.01623
512.306	-0.01623
512.651	-0.01623
512.996	-0.01623
513.341	-0.01623
513.685	-0.01623
514.03	-0.01623
514.375	-0.01623
514.72	-0.01623
515.065	-0.01623
515.409	-0.01623
515.754	-0.01623
516.099	-0.01623
516.443	-0.01623
516.788	-0.01623
517.132	-0.01623
517.476	-0.01623
517.821	-0.01623
518.165	-0.01623
518.51	-0.01623
518.854	-0.01623
519.198	-0.01623
519.542	-0.01623
519.886	-0.01623
520.23	-0.01623
520.574	-0.01623
520.918	-0.01623
521.262	-0.01623
521.606	-0.01623
521.95	-0.01623
522.294	-0.01623
522.638	-0.01623
522.981	-0.01623
523.325	-0.01623
523.669	-0.01623
524.012	-0.01623
524.356	-0.01623
524.699	-0.01623
525.043	-0.01623
525.386	-0.01623
525.73	-0.01623
526.073	-0.01623
526.416	-0.01623
526.76	-0.01623
527.103	-0.01623
527.446	-0.01623
527.789	-0.01623
528.132	-0.01623
528.475	-0.01623
528.818	-0.01623
529.161	-0.01623
529.504	-0.01623
529.847	-0.01623
530.19	-0.01623
530.532	-0.01623
530.875	-0.01623
531.218	-0.01623
531.56	-0.01623
531.903	-0.01623
532.246	-0.01623
532.588	-0.01623
532.93	-0.01623
533.273	-0.01623
533.615	-0.01623
533.958	-0.01623
534.3	-0.01623
534.642	-0.01623
534.984	-0.01623
535.326	-0.01623
535.669	-0.01623
536.011	-0.01623
536.353	-0.01623
536.695	-0.01623
537.037	-0.01623
537.378	-0.01623
537.72	-0.01623
538.062	-0.01623
538.404	-0.01623
538.746	-0.01623
539.087	-0.01623
539.429	-0.01623
539.77	-0.01623
540.112	-0.01623
540.454	-0.01623
540.795	-0.01623
541.136	-0.01623
541.478	-0.01623
541.819	-0.01623
542.16	-0.01623
542.502	-0.01623
542.843	-0.01623
543.184	-0.01623
543.525	-0.01623
543.866	-0.01623
544.207	-0.01623
544.548	-0.01623
544.889	-0.01623
545.23	-0.01623
545.571	-0.01623
545.911	-0.01623
546.252	-0.01623
546.593	-0.01623
546.934	-0.01623
547.274	-0.01623
547.615	-0.01623
547.955	-0.01623
548.296	-0.01623
548.636	-0.01623
548.977	-0.01623
549.317	-0.01623
549.657	-0.01623
549.997	-0.01623
550.338	-0.01623
550.678	-0.01623
551.018	-0.01623
551.358	-0.01623
551.698	-0.01623
552.038	-0.01623
552.378	-0.01623
552.718	-0.01623
553.058	-0.01623
553.398	-0.01623
553.737	-0.01623
554.077	-0.01623
554.417	-0.01623
554.756	-0.01623
555.096	-0.01623
555.435	-0.01623
555.775	-0.01623
556.114	-0.01623
556.454	-0.01623
556.793	-0.01623
557.133	-0.01623
557.472	-0.01623
557.811	-0.01623
558.15	-0.01623
558.489	-0.01623
558.829	-0.01623
559.168	-0.01623
559.507	-0.01623
559.846	-0.01623
560.184	-0.01623
560.523	-0.01623
560.862	-0.01623
561.201	-0.01623
561.54	-0.01623
561.878	-0.01623
562.217	-0.01623
562.556	-0.01623
562.894	-0.01623
563.233	-0.01623
563.571	-0.01623
563.91	-0.01623
564.248	-0.01623
564.586	-0.01623
564.925	-0.01623
565.263	-0.01623
565.601	-0.01623
565.939	-0.01623
566.277	-0.01623
566.616	-0.01623
566.954	-0.01623
567.292	-0.01623
567.63	-0.01623
567.967	-0.01623
568.305	-0.01623
568.643	-0.01623
568.981	-0.01623
569.319	-0.01623
569.656	-0.01623
569.994	-0.01623
570.331	-0.01623
570.669	-0.01623
571.006	-0.01623
571.344	-0.01623
571.681	-0.01623
572.019	-0.01623
572.356	-0.01623
572.693	-0.01623
573.03	-0.01623
573.368	-0.01623
573.705	-0.01623
574.042	-0.01623
574.379	-0.01623
574.716	-0.01623
575.053	-0.01623
575.39	-0.01623
575.727	-0.01623
576.063	-0.01623
576.4	-0.01623
576.737	-0.01623
577.074	-0.01623
577.41	-0.01623
577.747	-0.01623
578.083	-0.01623
578.42	-0.01623
578.756	-0.01623
579.093	-0.01623
579.429	-0.01623
579.766	-0.01623
580.102	-0.01623
580.438	-0.01623
580.774	-0.01623
581.11	-0.01623
581.446	-0.01623
