Data from 5 min laser_Absorbance_01.txt Node
Date: Fri Jan 27 16:22:01 EST 2023
User: UV-vis
Spectrometer: FLMS04918
Trigger mode: 0
Integration Time (sec): 1.340000E-3
Scans to average: 10
Electric dark correction enabled: true
Nonlinearity correction enabled: false
Boxcar width: 10
XAxis mode: Wavelengths
Number of Pixels in Spectrum: 2048
>>>>>Begin Spectral Data<<<<<
179.23	0.02165
179.611	0.02866
179.992	-0.00526
180.373	0.00636
180.754	0.18768
181.134	0.09458
181.515	0.08482
181.896	0.04023
182.276	0.02819
182.657	-0.03387
183.038	-0.1357
183.418	-0.22171
183.799	-0.34936
184.179	-0.01613
184.56	0.08188
184.94	0.08009
185.32	0.09208
185.701	0.0954
186.081	0.0798
186.461	0.08796
186.842	0.08828
187.222	0.08362
187.602	0.0792
187.982	0.07558
188.362	0.0716
188.742	0.06685
189.122	0.06523
189.502	0.06271
189.882	0.06524
190.262	0.06705
190.642	0.06804
191.022	0.06898
191.402	0.06695
191.781	0.06834
192.161	0.06666
192.541	0.0637
192.92	0.06303
193.3	0.06464
193.68	0.06363
194.059	0.06476
194.439	0.06133
194.818	0.05852
195.198	0.05964
195.577	0.05925
195.957	0.06126
196.336	0.05996
196.715	0.06066
197.094	0.06234
197.474	0.06674
197.853	0.06754
198.232	0.06815
198.611	0.06716
198.99	0.06727
199.369	0.07084
199.748	0.06981
200.127	0.06955
200.506	0.07261
200.885	0.07491
201.264	0.0711
201.643	0.07137
202.022	0.06994
202.401	0.07236
202.779	0.0756
203.158	0.07477
203.537	0.07596
203.915	0.08004
204.294	0.08311
204.673	0.0835
205.051	0.08381
205.43	0.07978
205.808	0.07803
206.187	0.07792
206.565	0.07618
206.943	0.07642
207.322	0.0748
207.7	0.07721
208.078	0.07598
208.456	0.0742
208.835	0.07274
209.213	0.07188
209.591	0.07317
209.969	0.07223
210.347	0.0716
210.725	0.06895
211.103	0.06869
211.481	0.06963
211.859	0.06569
212.237	0.06453
212.614	0.06252
212.992	0.06434
213.37	0.06734
213.748	0.06838
214.125	0.06598
214.503	0.07026
214.881	0.07175
215.258	0.07262
215.636	0.06975
216.013	0.07173
216.391	0.0736
216.768	0.07311
217.145	0.0742
217.523	0.07172
217.9	0.07246
218.277	0.07248
218.655	0.07392
219.032	0.07666
219.409	0.0776
219.786	0.07712
220.163	0.07965
220.54	0.07905
220.917	0.07816
221.294	0.07484
221.671	0.07494
222.048	0.07892
222.425	0.08
222.802	0.07872
223.179	0.07841
223.556	0.07835
223.932	0.07676
224.309	0.07766
224.686	0.07993
225.062	0.08214
225.439	0.08132
225.815	0.08384
226.192	0.08389
226.568	0.08308
226.945	0.08151
227.321	0.08031
227.698	0.07975
228.074	0.07858
228.45	0.07937
228.827	0.07848
229.203	0.08212
229.579	0.08131
229.955	0.08056
230.331	0.0795
230.707	0.07839
231.083	0.07908
231.46	0.08065
231.835	0.08312
232.211	0.08195
232.587	0.08133
232.963	0.07935
233.339	0.08061
233.715	0.08026
234.091	0.07985
234.466	0.07882
234.842	0.07866
235.218	0.07948
235.593	0.07898
235.969	0.08176
236.344	0.08357
236.72	0.08585
237.095	0.08439
237.471	0.08449
237.846	0.08368
238.222	0.08229
238.597	0.08507
238.972	0.08671
239.348	0.08575
239.723	0.08432
240.098	0.08382
240.473	0.08322
240.848	0.08517
241.223	0.08554
241.598	0.08534
241.973	0.08743
242.348	0.08786
242.723	0.08938
243.098	0.09165
243.473	0.09515
243.848	0.09218
244.223	0.09203
244.597	0.0917
244.972	0.09256
245.347	0.09161
245.721	0.09032
246.096	0.09165
246.47	0.09197
246.845	0.09055
247.219	0.09426
247.594	0.09674
247.968	0.09703
248.343	0.09741
248.717	0.09859
249.091	0.09979
249.466	0.09921
249.84	0.099
250.214	0.09985
250.588	0.10011
250.962	0.09628
251.336	0.09533
251.71	0.09484
252.084	0.09451
252.458	0.09422
252.832	0.09356
253.206	0.09311
253.58	0.09392
253.954	0.09427
254.328	0.09105
254.702	0.08984
255.075	0.08553
255.449	0.0835
255.823	0.08341
256.196	0.08302
256.57	0.08151
256.943	0.08057
257.317	0.0827
257.69	0.08243
258.064	0.08178
258.437	0.08137
258.81	0.08256
259.184	0.08389
259.557	0.08624
259.93	0.08733
260.303	0.08699
260.677	0.08724
261.05	0.08753
261.423	0.08582
261.796	0.08627
262.169	0.0886
262.542	0.08976
262.915	0.09265
263.288	0.0934
263.661	0.09436
264.033	0.09624
264.406	0.09784
264.779	0.09693
265.152	0.09586
265.524	0.09706
265.897	0.09966
266.27	0.09915
266.642	0.09893
267.015	0.09887
267.387	0.09826
267.76	0.09857
268.132	0.09823
268.504	0.10035
268.877	0.10204
269.249	0.10513
269.621	0.10458
269.994	0.10448
270.366	0.10439
270.738	0.10275
271.11	0.10356
271.482	0.10377
271.854	0.10125
272.226	0.10021
272.598	0.10198
272.97	0.10273
273.342	0.10359
273.714	0.10216
274.086	0.10409
274.458	0.10652
274.829	0.10715
275.201	0.10641
275.573	0.10538
275.944	0.10651
276.316	0.10557
276.688	0.10713
277.059	0.10609
277.431	0.10612
277.802	0.1073
278.173	0.10743
278.545	0.10867
278.916	0.11072
279.287	0.11284
279.659	0.11628
280.03	0.11983
280.401	0.12331
280.772	0.1283
281.143	0.13241
281.515	0.13605
281.886	0.13857
282.257	0.14048
282.628	0.14222
282.998	0.14377
283.369	0.14487
283.74	0.14587
284.111	0.1463
284.482	0.14652
284.853	0.14704
285.223	0.14726
285.594	0.1472
285.965	0.14716
286.335	0.14719
286.706	0.14705
287.076	0.14694
287.447	0.14676
287.817	0.14623
288.188	0.14586
288.558	0.14549
288.928	0.14496
289.299	0.14432
289.669	0.14364
290.039	0.14286
290.409	0.14201
290.779	0.14118
291.149	0.1402
291.52	0.13928
291.89	0.13844
292.26	0.13755
292.629	0.13644
292.999	0.13549
293.369	0.13458
293.739	0.13369
294.109	0.13273
294.479	0.13187
294.848	0.13096
295.218	0.13002
295.588	0.12924
295.957	0.12851
296.327	0.12753
296.696	0.12654
297.066	0.12555
297.435	0.12453
297.805	0.1235
298.174	0.12231
298.544	0.12109
298.913	0.11989
299.282	0.11867
299.651	0.11745
300.021	0.11628
300.39	0.11523
300.759	0.11418
301.128	0.11326
301.497	0.11248
301.866	0.1118
302.235	0.11106
302.604	0.11042
302.973	0.10977
303.342	0.10912
303.71	0.10819
304.079	0.10735
304.448	0.10632
304.817	0.10523
305.185	0.10396
305.554	0.10256
305.923	0.10119
306.291	0.09963
306.66	0.09819
307.028	0.09686
307.397	0.09532
307.765	0.09396
308.133	0.09247
308.502	0.09106
308.87	0.08955
309.238	0.08804
309.606	0.0866
309.975	0.08532
310.343	0.08402
310.711	0.08291
311.079	0.0819
311.447	0.08099
311.815	0.08017
312.183	0.07976
312.551	0.07948
312.919	0.07947
313.286	0.07977
313.654	0.08039
314.022	0.0813
314.39	0.0822
314.757	0.08298
315.125	0.08396
315.492	0.0848
315.86	0.0857
316.228	0.08637
316.595	0.08699
316.962	0.08741
317.33	0.08752
317.697	0.08745
318.065	0.08736
318.432	0.08699
318.799	0.08653
319.166	0.08595
319.534	0.08531
319.901	0.08464
320.268	0.08426
320.635	0.08399
321.002	0.08364
321.369	0.08314
321.736	0.08251
322.103	0.08195
322.47	0.0814
322.836	0.08084
323.203	0.08029
323.57	0.07967
323.937	0.07917
324.303	0.07876
324.67	0.07844
325.037	0.07826
325.403	0.07821
325.77	0.07808
326.136	0.07817
326.503	0.0783
326.869	0.07846
327.235	0.07878
327.602	0.07893
327.968	0.07893
328.334	0.07871
328.7	0.0785
329.067	0.07827
329.433	0.07808
329.799	0.07791
330.165	0.07779
330.531	0.07774
330.897	0.07772
331.263	0.07801
331.629	0.0783
331.995	0.07872
332.36	0.07928
332.726	0.07982
333.092	0.08042
333.458	0.08116
333.823	0.08179
334.189	0.08252
334.554	0.0833
334.92	0.084
335.286	0.08481
335.651	0.08562
336.016	0.08638
336.382	0.08717
336.747	0.08798
337.113	0.08872
337.478	0.0894
337.843	0.09001
338.208	0.09076
338.573	0.0915
338.939	0.09222
339.304	0.093
339.669	0.0938
340.034	0.09436
340.399	0.09506
340.764	0.09577
341.129	0.09646
341.493	0.09727
341.858	0.09797
342.223	0.09873
342.588	0.09957
342.952	0.10035
343.317	0.1009
343.682	0.10166
344.046	0.10235
344.411	0.10305
344.775	0.10382
345.14	0.10461
345.504	0.10545
345.869	0.10615
346.233	0.10674
346.597	0.10731
346.962	0.10774
347.326	0.10806
347.69	0.10857
348.054	0.10902
348.418	0.10928
348.782	0.10964
349.146	0.10987
349.51	0.11009
349.874	0.11039
350.238	0.1106
350.602	0.11087
350.966	0.1112
351.33	0.11153
351.693	0.11188
352.057	0.11216
352.421	0.11243
352.784	0.11278
353.148	0.11305
353.512	0.11337
353.875	0.11384
354.239	0.11417
354.602	0.11466
354.966	0.11513
355.329	0.11566
355.692	0.11621
356.056	0.1169
356.419	0.11744
356.782	0.11811
357.145	0.11884
357.508	0.11946
357.871	0.12014
358.234	0.12072
358.597	0.12136
358.96	0.12189
359.323	0.12241
359.686	0.12302
360.049	0.12373
360.412	0.12434
360.775	0.12504
361.137	0.1257
361.5	0.12634
361.863	0.12698
362.225	0.12765
362.588	0.12836
362.951	0.12891
363.313	0.12946
363.675	0.12996
364.038	0.13061
364.4	0.13123
364.763	0.1318
365.125	0.13253
365.487	0.13313
365.849	0.13381
366.212	0.13447
366.574	0.13515
366.936	0.13585
367.298	0.13659
367.66	0.13725
368.022	0.138
368.384	0.13872
368.746	0.13945
369.108	0.14013
369.469	0.14093
369.831	0.14175
370.193	0.14245
370.555	0.1433
370.916	0.14416
371.278	0.14503
371.64	0.14574
372.001	0.14648
372.363	0.14731
372.724	0.14808
373.086	0.14885
373.447	0.14963
373.808	0.15033
374.17	0.15108
374.531	0.1518
374.892	0.15254
375.253	0.15324
375.615	0.15394
375.976	0.15472
376.337	0.15552
376.698	0.15648
377.059	0.15732
377.42	0.15814
377.781	0.15918
378.141	0.16007
378.502	0.16099
378.863	0.16193
379.224	0.16302
379.585	0.16406
379.945	0.16518
380.306	0.16618
380.666	0.16727
381.027	0.16837
381.388	0.16959
381.748	0.17081
382.108	0.17198
382.469	0.17317
382.829	0.17452
383.19	0.17581
383.55	0.1771
383.91	0.17834
384.27	0.17954
384.63	0.18081
384.991	0.18191
385.351	0.183
385.711	0.18413
386.071	0.18541
386.431	0.18663
386.791	0.18788
387.15	0.18912
387.51	0.1903
387.87	0.19153
388.23	0.19282
388.589	0.19399
388.949	0.19514
389.309	0.19634
389.668	0.19773
390.028	0.19897
390.387	0.20023
390.747	0.20153
391.106	0.20292
391.466	0.20442
391.825	0.20586
392.184	0.20739
392.544	0.20901
392.903	0.21065
393.262	0.2123
393.621	0.21384
393.98	0.21544
394.339	0.21701
394.698	0.21868
395.057	0.22046
395.416	0.22223
395.775	0.22399
396.134	0.22585
396.493	0.22785
396.852	0.22982
397.211	0.23163
397.569	0.23361
397.928	0.23554
398.287	0.23756
398.645	0.23947
399.004	0.24141
399.362	0.24332
399.721	0.2452
400.079	0.24715
400.438	0.24898
400.796	0.25106
401.154	0.25299
401.512	0.25521
401.871	0.2573
402.229	0.25933
402.587	0.26129
402.945	0.26343
403.303	0.26554
403.661	0.2677
404.019	0.26965
404.377	0.27165
404.735	0.27377
405.093	0.27566
405.451	0.27748
405.808	0.2793
406.166	0.2811
406.524	0.28298
406.882	0.28468
407.239	0.28655
407.597	0.28843
407.954	0.29027
408.312	0.2921
408.669	0.29417
409.027	0.29615
409.384	0.29826
409.741	0.3003
410.099	0.30234
410.456	0.30416
410.813	0.30588
411.17	0.30753
411.527	0.30933
411.884	0.31106
412.242	0.31273
412.599	0.31464
412.956	0.31652
413.312	0.31815
413.669	0.32001
414.026	0.3214
414.383	0.32322
414.74	0.32472
415.096	0.32625
415.453	0.32779
415.81	0.32935
416.166	0.33078
416.523	0.33213
416.879	0.33356
417.236	0.33495
417.592	0.33626
417.949	0.33767
418.305	0.33909
418.661	0.34037
419.018	0.34147
419.374	0.34253
419.73	0.34375
420.086	0.34464
420.442	0.34542
420.798	0.34641
421.154	0.34708
421.51	0.34797
421.866	0.34864
422.222	0.34931
422.578	0.3498
422.934	0.3503
423.29	0.35055
423.646	0.35084
424.001	0.351
424.357	0.35108
424.713	0.35117
425.068	0.35117
425.424	0.3511
425.779	0.35087
426.135	0.35057
426.49	0.35038
426.845	0.3501
427.201	0.34938
427.556	0.34881
427.911	0.34843
428.266	0.34772
428.622	0.34692
428.977	0.3461
429.332	0.34525
429.687	0.3445
430.042	0.34378
430.397	0.34303
430.752	0.34234
431.107	0.34143
431.461	0.34087
431.816	0.33995
432.171	0.33907
432.526	0.33835
432.88	0.33748
433.235	0.33628
433.59	0.33516
433.944	0.33398
434.299	0.33274
434.653	0.33183
435.008	0.33072
435.362	0.32953
435.716	0.32857
436.071	0.3275
436.425	0.32621
436.779	0.32482
437.133	0.32326
437.487	0.32185
437.841	0.3202
438.195	0.31844
438.549	0.3169
438.903	0.31499
439.257	0.31322
439.611	0.31148
439.965	0.30941
440.319	0.30744
440.673	0.30579
441.026	0.30368
441.38	0.30167
441.734	0.29987
442.087	0.29766
442.441	0.2959
442.794	0.29355
443.148	0.29127
443.501	0.28917
443.855	0.28722
444.208	0.28524
444.561	0.28334
444.915	0.28122
445.268	0.27926
445.621	0.27731
445.974	0.27529
446.327	0.27367
446.68	0.27182
447.033	0.26993
447.386	0.26824
447.739	0.26632
448.092	0.26452
448.445	0.26283
448.798	0.26121
449.15	0.25917
449.503	0.25749
449.856	0.25543
450.209	0.25376
450.561	0.25188
450.914	0.25016
451.266	0.24821
451.619	0.24624
451.971	0.24421
452.323	0.24235
452.676	0.24044
453.028	0.23883
453.38	0.23696
453.733	0.23513
454.085	0.23334
454.437	0.23138
454.789	0.22946
455.141	0.22758
455.493	0.22556
455.845	0.22377
456.197	0.22163
456.549	0.22012
456.901	0.2182
457.253	0.21624
457.604	0.21469
457.956	0.21299
458.308	0.21124
458.659	0.20957
459.011	0.20792
459.362	0.20654
459.714	0.20472
460.065	0.20308
460.417	0.20127
460.768	0.19976
461.12	0.19787
461.471	0.19614
461.822	0.19474
462.173	0.19313
462.525	0.19162
462.876	0.19011
463.227	0.18869
463.578	0.18706
463.929	0.18525
464.28	0.1837
464.631	0.18238
464.982	0.18092
465.332	0.1796
465.683	0.17792
466.034	0.17648
466.385	0.17522
466.735	0.17352
467.086	0.17238
467.437	0.17091
467.787	0.16949
468.138	0.16798
468.488	0.16655
468.839	0.16514
469.189	0.16359
469.539	0.16228
469.89	0.16077
470.24	0.15947
470.59	0.15819
470.94	0.15717
471.29	0.15609
471.64	0.15486
471.99	0.15343
472.34	0.15187
472.69	0.15047
473.04	0.14932
473.39	0.14805
473.74	0.14686
474.09	0.1458
474.439	0.14453
474.789	0.14327
475.139	0.14212
475.488	0.14093
475.838	0.13991
476.188	0.13885
476.537	0.13774
476.886	0.13663
477.236	0.13544
477.585	0.13416
477.935	0.13296
478.284	0.13199
478.633	0.13063
478.982	0.12966
479.331	0.12869
479.68	0.12781
480.03	0.12678
480.379	0.12593
480.728	0.12517
481.076	0.12414
481.425	0.12307
481.774	0.12208
482.123	0.12125
482.472	0.1204
482.821	0.11962
483.169	0.11881
483.518	0.11792
483.866	0.11717
484.215	0.11629
484.563	0.11563
484.912	0.11491
485.26	0.11396
485.609	0.11295
485.957	0.11221
486.305	0.11139
486.654	0.11048
487.002	0.10964
487.35	0.10899
487.698	0.10817
488.046	0.10745
488.394	0.10671
488.742	0.10593
489.09	0.1052
489.438	0.10456
489.786	0.10391
490.134	0.1031
490.482	0.10243
490.829	0.10175
491.177	0.10101
491.525	0.10031
491.872	0.09975
492.22	0.09899
492.567	0.0985
492.915	0.09768
493.262	0.09717
493.61	0.09653
493.957	0.09597
494.304	0.09534
494.652	0.09467
494.999	0.09395
495.346	0.09306
495.693	0.09254
496.04	0.09199
496.387	0.09143
496.734	0.09084
497.081	0.09018
497.428	0.08961
497.775	0.089
498.122	0.0885
498.469	0.08786
498.816	0.08736
499.162	0.08661
499.509	0.08617
499.856	0.08535
500.202	0.08499
500.549	0.08454
500.895	0.084
501.242	0.08352
501.588	0.08307
501.935	0.08241
502.281	0.08189
502.627	0.08148
502.973	0.08082
503.32	0.08022
503.666	0.07956
504.012	0.07905
504.358	0.07849
504.704	0.07799
505.05	0.07731
505.396	0.07682
505.742	0.07633
506.088	0.07577
506.433	0.07528
506.779	0.07473
507.125	0.07451
507.471	0.07402
507.816	0.07336
508.162	0.07304
508.507	0.07247
508.853	0.07198
509.198	0.07167
509.544	0.07129
509.889	0.07074
510.234	0.07038
510.58	0.06993
510.925	0.06973
511.27	0.0693
511.615	0.06888
511.96	0.06843
512.306	0.06807
512.651	0.06753
512.996	0.06718
513.341	0.06671
513.685	0.06635
514.03	0.06595
514.375	0.06562
514.72	0.06532
515.065	0.065
515.409	0.06449
515.754	0.0641
516.099	0.06391
516.443	0.0636
516.788	0.0633
517.132	0.06297
517.476	0.06256
517.821	0.06227
518.165	0.06181
518.51	0.06137
518.854	0.06106
519.198	0.06075
519.542	0.06047
519.886	0.06017
520.23	0.05998
520.574	0.05977
520.918	0.05949
521.262	0.05924
521.606	0.05891
521.95	0.05857
522.294	0.05829
522.638	0.05789
522.981	0.05756
523.325	0.05706
523.669	0.05666
524.012	0.05632
524.356	0.05609
524.699	0.05572
525.043	0.0555
525.386	0.05518
525.73	0.05487
526.073	0.05458
526.416	0.05424
526.76	0.05396
527.103	0.05377
527.446	0.05331
527.789	0.05317
528.132	0.05293
528.475	0.0527
528.818	0.05227
529.161	0.05199
529.504	0.05165
529.847	0.05133
530.19	0.05124
530.532	0.0511
530.875	0.05082
531.218	0.05054
531.56	0.05018
531.903	0.05
532.246	0.04967
532.588	0.04952
532.93	0.04935
533.273	0.0491
533.615	0.04891
533.958	0.0487
534.3	0.04839
534.642	0.04826
534.984	0.04785
535.326	0.04744
535.669	0.04719
536.011	0.04714
536.353	0.0469
536.695	0.04662
537.037	0.04648
537.378	0.04608
537.72	0.0458
538.062	0.04559
538.404	0.04547
538.746	0.04525
539.087	0.04501
539.429	0.04473
539.77	0.04446
540.112	0.04405
540.454	0.04385
540.795	0.04363
541.136	0.04338
541.478	0.04325
541.819	0.04312
542.16	0.04289
542.502	0.04283
542.843	0.04259
543.184	0.04221
543.525	0.04193
543.866	0.04187
544.207	0.04162
544.548	0.04159
544.889	0.04124
545.23	0.04108
545.571	0.04066
545.911	0.04053
546.252	0.04054
546.593	0.04052
546.934	0.04037
547.274	0.04027
547.615	0.04005
547.955	0.03984
548.296	0.03961
548.636	0.03926
548.977	0.03898
549.317	0.03888
549.657	0.03884
549.997	0.03865
550.338	0.03868
550.678	0.03865
551.018	0.03851
551.358	0.03836
551.698	0.03814
552.038	0.03813
552.378	0.03791
552.718	0.03771
553.058	0.03744
553.398	0.03717
553.737	0.03685
554.077	0.03661
554.417	0.03667
554.756	0.03667
555.096	0.03643
555.435	0.03638
555.775	0.03645
556.114	0.03622
556.454	0.03621
556.793	0.03592
557.133	0.03575
557.472	0.03539
557.811	0.03521
558.15	0.03502
558.489	0.03468
558.829	0.03444
559.168	0.03434
559.507	0.03418
559.846	0.03419
560.184	0.03416
560.523	0.03395
560.862	0.03381
561.201	0.03371
561.54	0.03345
561.878	0.03325
562.217	0.03334
562.556	0.03297
562.894	0.03266
563.233	0.03257
563.571	0.03218
563.91	0.03208
564.248	0.03194
564.586	0.03179
564.925	0.03169
565.263	0.03144
565.601	0.03146
565.939	0.0314
566.277	0.03114
566.616	0.03106
566.954	0.03094
567.292	0.03086
567.63	0.03072
567.967	0.0307
568.305	0.03055
568.643	0.03045
568.981	0.03021
569.319	0.02992
569.656	0.03003
569.994	0.02996
570.331	0.02986
570.669	0.02998
571.006	0.02971
571.344	0.02956
571.681	0.02958
572.019	0.02938
572.356	0.02924
572.693	0.02917
573.03	0.02906
573.368	0.02895
573.705	0.02896
574.042	0.02887
574.379	0.02872
574.716	0.02862
575.053	0.02848
575.39	0.02841
575.727	0.02834
576.063	0.02825
576.4	0.02814
576.737	0.028
577.074	0.02782
577.41	0.0276
577.747	0.02731
578.083	0.0272
578.42	0.02724
578.756	0.02704
579.093	0.02701
579.429	0.02708
579.766	0.02698
580.102	0.02686
580.438	0.0268
580.774	0.02646
581.11	0.02635
581.446	0.02633
581.782	0.02616
582.119	0.026
582.454	0.02595
582.79	0.02571
583.126	0.02567
583.462	0.0256
583.798	0.02541
584.134	0.02544
584.469	0.02537
584.805	0.02528
585.141	0.0253
585.476	0.0251
585.812	0.02497
586.147	0.02484
586.482	0.02476
586.818	0.0247
587.153	0.02454
587.488	0.02448
587.824	0.02448
588.159	0.02423
588.494	0.02413
588.829	0.0241
589.164	0.024
589.499	0.02378
589.834	0.02369
590.169	0.02361
590.504	0.02358
590.839	0.02348
591.174	0.02329
591.508	0.02316
591.843	0.02314
592.178	0.023
592.512	0.02286
592.847	0.0228
593.181	0.02269
593.516	0.02248
593.85	0.02239
594.185	0.02234
594.519	0.0222
594.853	0.02217
595.187	0.02229
595.522	0.02216
595.856	0.02223
596.19	0.02234
596.524	0.02229
596.858	0.02232
597.192	0.02211
597.526	0.02193
597.86	0.02186
598.194	0.02185
